Time (s),Normal Strain,Shear Strain
0,0,0
0.010005,1.1e-05,1.9e-05
0.02001,2.3e-05,3.9e-05
0.030015,3.4e-05,5.8e-05
0.04002,4.5e-05,7.8e-05
0.050025,5.7e-05,9.7e-05
0.06003,6.8e-05,0.000117
0.070035,7.9e-05,0.000136
0.08004,9e-05,0.000156
0.090045,0.000102,0.000175
0.10005,0.000113,0.000195
0.110055,0.000124,0.000214
0.12006,0.000136,0.000234
0.130065,0.000147,0.000253
0.14007,0.000158,0.000272
0.150075,0.000169,0.000292
0.16008,0.000181,0.000311
0.170085,0.000192,0.000331
0.18009,0.000203,0.00035
0.190095,0.000214,0.000369
0.2001,0.000226,0.000389
0.210105,0.000237,0.000408
0.22011,0.000248,0.000427
0.230115,0.000259,0.000447
0.24012,0.000271,0.000466
0.250125,0.000282,0.000485
0.26013,0.000293,0.000504
0.270135,0.000304,0.000524
0.28014,0.000315,0.000543
0.290145,0.000326,0.000562
0.30015,0.000337,0.000581
0.310155,0.000349,0.0006
0.32016,0.00036,0.000619
0.330165,0.000371,0.000638
0.34017,0.000382,0.000658
0.350175,0.000393,0.000677
0.36018,0.000404,0.000696
0.370185,0.000415,0.000715
0.38019,0.000426,0.000734
0.390195,0.000437,0.000752
0.4002,0.000448,0.000771
0.410205,0.000459,0.00079
0.42021,0.00047,0.000809
0.430215,0.000481,0.000828
0.44022,0.000492,0.000847
0.450225,0.000502,0.000865
0.46023,0.000513,0.000884
0.470235,0.000524,0.000903
0.48024,0.000535,0.000921
0.490245,0.000546,0.00094
0.50025,0.000556,0.000958
0.510255,0.000567,0.000977
0.52026,0.000578,0.000995
0.530265,0.000589,0.001014
0.54027,0.000599,0.001032
0.550275,0.00061,0.001051
0.56028,0.000621,0.001069
0.570285,0.000631,0.001087
0.58029,0.000642,0.001105
0.590295,0.000652,0.001124
0.6003,0.000663,0.001142
0.610305,0.000673,0.00116
0.62031,0.000684,0.001178
0.630315,0.000694,0.001196
0.64032,0.000705,0.001214
0.650325,0.000715,0.001232
0.66033,0.000726,0.00125
0.670335,0.000736,0.001267
0.68034,0.000746,0.001285
0.690345,0.000757,0.001303
0.70035,0.000767,0.001321
0.710355,0.000777,0.001338
0.72036,0.000787,0.001356
0.730365,0.000797,0.001373
0.74037,0.000807,0.001391
0.750375,0.000818,0.001408
0.76038,0.000828,0.001425
0.770385,0.000838,0.001443
0.78039,0.000848,0.00146
0.790395,0.000858,0.001477
0.8004,0.000868,0.001494
0.810405,0.000877,0.001511
0.82041,0.000887,0.001528
0.830415,0.000897,0.001545
0.84042,0.000907,0.001562
0.850425,0.000917,0.001579
0.86043,0.000926,0.001595
0.870435,0.000936,0.001612
0.88044,0.000946,0.001629
0.890445,0.000955,0.001645
0.90045,0.000965,0.001662
0.910455,0.000974,0.001678
0.92046,0.000984,0.001695
0.930465,0.000993,0.001711
0.94047,0.001003,0.001727
0.950475,0.001012,0.001743
0.96048,0.001022,0.001759
0.970485,0.001031,0.001775
0.98049,0.00104,0.001791
0.990495,0.001049,0.001807
1.0005,0.001058,0.001823
1.010505,0.001068,0.001839
1.02051,0.001077,0.001854
1.030515,0.001086,0.00187
1.04052,0.001095,0.001885
1.050525,0.001104,0.001901
1.06053,0.001113,0.001916
1.070535,0.001121,0.001931
1.08054,0.00113,0.001947
1.090545,0.001139,0.001962
1.10055,0.001148,0.001977
1.110555,0.001157,0.001992
1.12056,0.001165,0.002007
1.130565,0.001174,0.002022
1.14057,0.001182,0.002036
1.150575,0.001191,0.002051
1.16058,0.001199,0.002065
1.170585,0.001208,0.00208
1.18059,0.001216,0.002094
1.190595,0.001224,0.002109
1.2006,0.001233,0.002123
1.210605,0.001241,0.002137
1.22061,0.001249,0.002151
1.230615,0.001257,0.002165
1.24062,0.001265,0.002179
1.250625,0.001273,0.002193
1.26063,0.001281,0.002207
1.270635,0.001289,0.00222
1.28064,0.001297,0.002234
1.290645,0.001305,0.002247
1.30065,0.001313,0.002261
1.310655,0.00132,0.002274
1.32066,0.001328,0.002287
1.330665,0.001336,0.0023
1.34067,0.001343,0.002313
1.350675,0.001351,0.002326
1.36068,0.001358,0.002339
1.370685,0.001366,0.002352
1.38069,0.001373,0.002364
1.390695,0.00138,0.002377
1.4007,0.001387,0.002389
1.410705,0.001395,0.002402
1.42071,0.001402,0.002414
1.430715,0.001409,0.002426
1.44072,0.001416,0.002438
1.450725,0.001423,0.00245
1.46073,0.00143,0.002462
1.470735,0.001437,0.002474
1.48074,0.001443,0.002486
1.490745,0.00145,0.002497
1.50075,0.001457,0.002509
1.510755,0.001463,0.00252
1.52076,0.00147,0.002532
1.530765,0.001476,0.002543
1.54077,0.001483,0.002554
1.550775,0.001489,0.002565
1.56078,0.001496,0.002576
1.570785,0.001502,0.002586
1.58079,0.001508,0.002597
1.590795,0.001514,0.002608
1.6008,0.00152,0.002618
1.610805,0.001526,0.002629
1.62081,0.001532,0.002639
1.630815,0.001538,0.002649
1.64082,0.001544,0.002659
1.650825,0.00155,0.002669
1.66083,0.001556,0.002679
1.670835,0.001561,0.002689
1.68084,0.001567,0.002698
1.690845,0.001572,0.002708
1.70085,0.001578,0.002717
1.710855,0.001583,0.002727
1.72086,0.001589,0.002736
1.730865,0.001594,0.002745
1.74087,0.001599,0.002754
1.750875,0.001604,0.002763
1.76088,0.001609,0.002772
1.770885,0.001614,0.00278
1.78089,0.001619,0.002789
1.790895,0.001624,0.002797
1.8009,0.001629,0.002806
1.810905,0.001634,0.002814
1.82091,0.001639,0.002822
1.830915,0.001643,0.00283
1.84092,0.001648,0.002838
1.850925,0.001652,0.002846
1.86093,0.001657,0.002853
1.870935,0.001661,0.002861
1.88094,0.001666,0.002868
1.890945,0.00167,0.002876
1.90095,0.001674,0.002883
1.910955,0.001678,0.00289
1.92096,0.001682,0.002897
1.930965,0.001686,0.002904
1.94097,0.00169,0.002911
1.950975,0.001694,0.002917
1.96098,0.001698,0.002924
1.970985,0.001701,0.00293
1.98099,0.001705,0.002937
1.990995,0.001709,0.002943
2.001001,0.001712,0.002949
2.011006,0.001716,0.002955
2.021011,0.001719,0.002961
2.031016,0.001722,0.002966
2.041021,0.001726,0.002972
2.051026,0.001729,0.002977
2.061031,0.001732,0.002983
2.071036,0.001735,0.002988
2.081041,0.001738,0.002993
2.091046,0.001741,0.002998
2.101051,0.001744,0.003003
2.111056,0.001747,0.003008
2.121061,0.001749,0.003013
2.131066,0.001752,0.003017
2.141071,0.001754,0.003022
2.151076,0.001757,0.003026
2.161081,0.001759,0.00303
2.171086,0.001762,0.003034
2.181091,0.001764,0.003038
2.191096,0.001766,0.003042
2.201101,0.001768,0.003045
2.211106,0.00177,0.003049
2.221111,0.001772,0.003053
2.231116,0.001774,0.003056
2.241121,0.001776,0.003059
2.251126,0.001778,0.003062
2.261131,0.00178,0.003065
2.271136,0.001781,0.003068
2.281141,0.001783,0.003071
2.291146,0.001785,0.003073
2.301151,0.001786,0.003076
2.311156,0.001787,0.003078
2.321161,0.001789,0.00308
2.331166,0.00179,0.003083
2.341171,0.001791,0.003085
2.351176,0.001792,0.003086
2.361181,0.001793,0.003088
2.371186,0.001794,0.00309
2.381191,0.001795,0.003091
2.391196,0.001796,0.003093
2.401201,0.001797,0.003094
2.411206,0.001797,0.003095
2.421211,0.001798,0.003096
2.431216,0.001798,0.003097
2.441221,0.001799,0.003098
2.451226,0.001799,0.003099
2.461231,0.001799,0.003099
2.471236,0.0018,0.003099
2.481241,0.0018,0.0031
2.491246,0.0018,0.0031
2.501251,0.0018,0.0031
2.511256,0.0018,0.0031
2.521261,0.0018,0.0031
2.531266,0.0018,0.003099
2.541271,0.001799,0.003099
2.551276,0.001799,0.003098
2.561281,0.001799,0.003098
2.571286,0.001798,0.003097
2.581291,0.001798,0.003096
2.591296,0.001797,0.003095
2.601301,0.001796,0.003094
2.611306,0.001796,0.003092
2.621311,0.001795,0.003091
2.631316,0.001794,0.003089
2.641321,0.001793,0.003088
2.651326,0.001792,0.003086
2.661331,0.001791,0.003084
2.671336,0.00179,0.003082
2.681341,0.001788,0.00308
2.691346,0.001787,0.003078
2.701351,0.001786,0.003075
2.711356,0.001784,0.003073
2.721361,0.001783,0.00307
2.731366,0.001781,0.003067
2.741371,0.001779,0.003064
2.751376,0.001778,0.003061
2.761381,0.001776,0.003058
2.771386,0.001774,0.003055
2.781391,0.001772,0.003052
2.791396,0.00177,0.003048
2.801401,0.001768,0.003045
2.811406,0.001766,0.003041
2.821411,0.001763,0.003037
2.831416,0.001761,0.003033
2.841421,0.001759,0.003029
2.851426,0.001756,0.003025
2.861431,0.001754,0.00302
2.871436,0.001751,0.003016
2.881441,0.001749,0.003011
2.891446,0.001746,0.003007
2.901451,0.001743,0.003002
2.911456,0.00174,0.002997
2.921461,0.001737,0.002992
2.931466,0.001734,0.002987
2.941471,0.001731,0.002982
2.951476,0.001728,0.002976
2.961481,0.001725,0.002971
2.971486,0.001722,0.002965
2.981491,0.001718,0.002959
2.991496,0.001715,0.002953
3.001501,0.001711,0.002947
3.011506,0.001708,0.002941
3.021511,0.001704,0.002935
3.031516,0.001701,0.002929
3.041521,0.001697,0.002922
3.051526,0.001693,0.002916
3.061531,0.001689,0.002909
3.071536,0.001685,0.002902
3.081541,0.001681,0.002895
3.091546,0.001677,0.002888
3.101551,0.001673,0.002881
3.111556,0.001669,0.002874
3.121561,0.001664,0.002867
3.131566,0.00166,0.002859
3.141571,0.001656,0.002852
3.151576,0.001651,0.002844
3.161581,0.001647,0.002836
3.171586,0.001642,0.002828
3.181591,0.001637,0.00282
3.191596,0.001633,0.002812
3.201601,0.001628,0.002804
3.211606,0.001623,0.002795
3.221611,0.001618,0.002787
3.231616,0.001613,0.002778
3.241621,0.001608,0.002769
3.251626,0.001603,0.002761
3.261631,0.001598,0.002752
3.271636,0.001593,0.002743
3.281641,0.001587,0.002734
3.291646,0.001582,0.002724
3.301651,0.001576,0.002715
3.311656,0.001571,0.002706
3.321661,0.001565,0.002696
3.331666,0.00156,0.002686
3.341671,0.001554,0.002677
3.351676,0.001548,0.002667
3.361681,0.001543,0.002657
3.371686,0.001537,0.002647
3.381691,0.001531,0.002636
3.391696,0.001525,0.002626
3.401701,0.001519,0.002616
3.411706,0.001513,0.002605
3.421711,0.001506,0.002595
3.431716,0.0015,0.002584
3.441721,0.001494,0.002573
3.451726,0.001488,0.002562
3.461731,0.001481,0.002551
3.471736,0.001475,0.00254
3.481741,0.001468,0.002529
3.491746,0.001462,0.002517
3.501751,0.001455,0.002506
3.511756,0.001448,0.002494
3.521761,0.001442,0.002483
3.531766,0.001435,0.002471
3.541771,0.001428,0.002459
3.551776,0.001421,0.002447
3.561781,0.001414,0.002435
3.571786,0.001407,0.002423
3.581791,0.0014,0.002411
3.591796,0.001393,0.002399
3.601801,0.001386,0.002386
3.611806,0.001378,0.002374
3.621811,0.001371,0.002361
3.631816,0.001364,0.002349
3.641821,0.001356,0.002336
3.651826,0.001349,0.002323
3.661831,0.001341,0.00231
3.671836,0.001334,0.002297
3.681841,0.001326,0.002284
3.691846,0.001318,0.002271
3.701851,0.001311,0.002257
3.711856,0.001303,0.002244
3.721861,0.001295,0.00223
3.731866,0.001287,0.002217
3.741871,0.001279,0.002203
3.751876,0.001271,0.002189
3.761881,0.001263,0.002176
3.771886,0.001255,0.002162
3.781891,0.001247,0.002148
3.791896,0.001239,0.002134
3.801901,0.001231,0.002119
3.811906,0.001222,0.002105
3.821911,0.001214,0.002091
3.831916,0.001206,0.002076
3.841921,0.001197,0.002062
3.851926,0.001189,0.002047
3.861931,0.00118,0.002033
3.871936,0.001172,0.002018
3.881941,0.001163,0.002003
3.891946,0.001154,0.001988
3.901951,0.001146,0.001973
3.911956,0.001137,0.001958
3.921961,0.001128,0.001943
3.931966,0.001119,0.001928
3.941971,0.00111,0.001912
3.951976,0.001101,0.001897
3.961981,0.001092,0.001882
3.971986,0.001083,0.001866
3.981991,0.001074,0.00185
3.991996,0.001065,0.001835
4.002001,0.001056,0.001819
4.012006,0.001047,0.001803
4.022011,0.001038,0.001787
4.032016,0.001029,0.001771
4.042021,0.001019,0.001755
4.052026,0.00101,0.001739
4.062031,0.001,0.001723
4.072036,0.000991,0.001707
4.082041,0.000982,0.00169
4.092046,0.000972,0.001674
4.102051,0.000963,0.001658
4.112056,0.000953,0.001641
4.122061,0.000943,0.001625
4.132066,0.000934,0.001608
4.142071,0.000924,0.001591
4.152076,0.000914,0.001575
4.162081,0.000904,0.001558
4.172086,0.000895,0.001541
4.182091,0.000885,0.001524
4.192096,0.000875,0.001507
4.202101,0.000865,0.00149
4.212106,0.000855,0.001473
4.222111,0.000845,0.001456
4.232116,0.000835,0.001438
4.242121,0.000825,0.001421
4.252126,0.000815,0.001404
4.262131,0.000805,0.001386
4.272136,0.000795,0.001369
4.282141,0.000785,0.001351
4.292146,0.000774,0.001334
4.302151,0.000764,0.001316
4.312156,0.000754,0.001298
4.322161,0.000744,0.001281
4.332166,0.000733,0.001263
4.342171,0.000723,0.001245
4.352176,0.000713,0.001227
4.362181,0.000702,0.001209
4.372186,0.000692,0.001191
4.382191,0.000681,0.001173
4.392196,0.000671,0.001155
4.402201,0.00066,0.001137
4.412206,0.00065,0.001119
4.422211,0.000639,0.001101
4.432216,0.000629,0.001083
4.442221,0.000618,0.001064
4.452226,0.000607,0.001046
4.462231,0.000597,0.001028
4.472236,0.000586,0.001009
4.482241,0.000575,0.000991
4.492246,0.000565,0.000972
4.502251,0.000554,0.000954
4.512256,0.000543,0.000935
4.522261,0.000532,0.000917
4.532266,0.000521,0.000898
4.542271,0.000511,0.000879
4.552276,0.0005,0.000861
4.562281,0.000489,0.000842
4.572286,0.000478,0.000823
4.582291,0.000467,0.000804
4.592296,0.000456,0.000785
4.602301,0.000445,0.000767
4.612306,0.000434,0.000748
4.622311,0.000423,0.000729
4.632316,0.000412,0.00071
4.642321,0.000401,0.000691
4.652326,0.00039,0.000672
4.662331,0.000379,0.000653
4.672336,0.000368,0.000634
4.682341,0.000357,0.000615
4.692346,0.000346,0.000596
4.702351,0.000335,0.000576
4.712356,0.000324,0.000557
4.722361,0.000312,0.000538
4.732366,0.000301,0.000519
4.742371,0.00029,0.0005
4.752376,0.000279,0.00048
4.762381,0.000268,0.000461
4.772386,0.000257,0.000442
4.782391,0.000245,0.000423
4.792396,0.000234,0.000403
4.802401,0.000223,0.000384
4.812406,0.000212,0.000365
4.822411,0.0002,0.000345
4.832416,0.000189,0.000326
4.842421,0.000178,0.000306
4.852426,0.000167,0.000287
4.862431,0.000155,0.000268
4.872436,0.000144,0.000248
4.882441,0.000133,0.000229
4.892446,0.000122,0.000209
4.902451,0.00011,0.00019
4.912456,9.9e-05,0.00017
4.922461,8.8e-05,0.000151
4.932466,7.6e-05,0.000132
4.942471,6.5e-05,0.000112
4.952476,5.4e-05,9.3e-05
4.962481,4.2e-05,7.3e-05
4.972486,3.1e-05,5.4e-05
4.982491,2e-05,3.4e-05
4.992496,8e-06,1.5e-05
5.002501,-3.00E-06,-5.00E-06
5.012506,-1.40E-05,-2.40E-05
5.022511,-2.50E-05,-4.40E-05
5.032516,-3.70E-05,-6.30E-05
5.042521,-4.80E-05,-8.30E-05
5.052526,-5.90E-05,-0.000102
5.062531,-7.10E-05,-0.000122
5.072536,-8.20E-05,-0.000141
5.082541,-9.30E-05,-0.000161
5.092546,-0.000105,-0.00018
5.102551,-0.000116,-0.0002
5.112556,-0.000127,-0.000219
5.122561,-0.000138,-0.000238
5.132566,-0.00015,-0.000258
5.142571,-0.000161,-0.000277
5.152576,-0.000172,-0.000297
5.162581,-0.000184,-0.000316
5.172586,-0.000195,-0.000336
5.182591,-0.000206,-0.000355
5.192596,-0.000217,-0.000374
5.202601,-0.000229,-0.000394
5.212606,-0.00024,-0.000413
5.222611,-0.000251,-0.000432
5.232616,-0.000262,-0.000451
5.242621,-0.000273,-0.000471
5.252626,-0.000285,-0.00049
5.262631,-0.000296,-0.000509
5.272636,-0.000307,-0.000528
5.282641,-0.000318,-0.000548
5.292646,-0.000329,-0.000567
5.302651,-0.00034,-0.000586
5.312656,-0.000351,-0.000605
5.322661,-0.000362,-0.000624
5.332666,-0.000374,-0.000643
5.342671,-0.000385,-0.000662
5.352676,-0.000396,-0.000681
5.362681,-0.000407,-0.0007
5.372686,-0.000418,-0.000719
5.382691,-0.000429,-0.000738
5.392696,-0.00044,-0.000757
5.402701,-0.000451,-0.000776
5.412706,-0.000462,-0.000795
5.422711,-0.000472,-0.000814
5.432716,-0.000483,-0.000832
5.442721,-0.000494,-0.000851
5.452726,-0.000505,-0.00087
5.462731,-0.000516,-0.000889
5.472736,-0.000527,-0.000907
5.482741,-0.000538,-0.000926
5.492746,-0.000548,-0.000945
5.502751,-0.000559,-0.000963
5.512756,-0.00057,-0.000982
5.522761,-0.000581,-0.001
5.532766,-0.000591,-0.001018
5.542771,-0.000602,-0.001037
5.552776,-0.000613,-0.001055
5.562781,-0.000623,-0.001073
5.572786,-0.000634,-0.001092
5.582791,-0.000644,-0.00111
5.592796,-0.000655,-0.001128
5.602801,-0.000666,-0.001146
5.612806,-0.000676,-0.001164
5.622811,-0.000687,-0.001182
5.632816,-0.000697,-0.0012
5.642821,-0.000707,-0.001218
5.652826,-0.000718,-0.001236
5.662831,-0.000728,-0.001254
5.672836,-0.000738,-0.001272
5.682841,-0.000749,-0.00129
5.692846,-0.000759,-0.001307
5.702851,-0.000769,-0.001325
5.712856,-0.00078,-0.001343
5.722861,-0.00079,-0.00136
5.732866,-0.0008,-0.001378
5.742871,-0.00081,-0.001395
5.752876,-0.00082,-0.001412
5.762881,-0.00083,-0.00143
5.772886,-0.00084,-0.001447
5.782891,-0.00085,-0.001464
5.792896,-0.00086,-0.001481
5.802901,-0.00087,-0.001498
5.812906,-0.00088,-0.001515
5.822911,-0.00089,-0.001532
5.832916,-0.0009,-0.001549
5.842921,-0.000909,-0.001566
5.852926,-0.000919,-0.001583
5.862931,-0.000929,-0.0016
5.872936,-0.000939,-0.001616
5.882941,-0.000948,-0.001633
5.892946,-0.000958,-0.001649
5.902951,-0.000967,-0.001666
5.912956,-0.000977,-0.001682
5.922961,-0.000986,-0.001699
5.932966,-0.000996,-0.001715
5.942971,-0.001005,-0.001731
5.952976,-0.001015,-0.001747
5.962981,-0.001024,-0.001763
5.972986,-0.001033,-0.001779
5.982991,-0.001042,-0.001795
5.992996,-0.001052,-0.001811
6.003002,-0.001061,-0.001827
6.013007,-0.00107,-0.001843
6.023012,-0.001079,-0.001858
6.033017,-0.001088,-0.001874
6.043022,-0.001097,-0.001889
6.053027,-0.001106,-0.001905
6.063032,-0.001115,-0.00192
6.073037,-0.001124,-0.001935
6.083042,-0.001133,-0.00195
6.093047,-0.001141,-0.001966
6.103052,-0.00115,-0.001981
6.113057,-0.001159,-0.001996
6.123062,-0.001167,-0.00201
6.133067,-0.001176,-0.002025
6.143072,-0.001184,-0.00204
6.153077,-0.001193,-0.002055
6.163082,-0.001201,-0.002069
6.173087,-0.00121,-0.002084
6.183092,-0.001218,-0.002098
6.193097,-0.001226,-0.002112
6.203102,-0.001235,-0.002126
6.213107,-0.001243,-0.002141
6.223112,-0.001251,-0.002155
6.233117,-0.001259,-0.002169
6.243122,-0.001267,-0.002183
6.253127,-0.001275,-0.002196
6.263132,-0.001283,-0.00221
6.273137,-0.001291,-0.002224
6.283142,-0.001299,-0.002237
6.293147,-0.001307,-0.002251
6.303152,-0.001315,-0.002264
6.313157,-0.001322,-0.002277
6.323162,-0.00133,-0.00229
6.333167,-0.001338,-0.002304
6.343172,-0.001345,-0.002317
6.353177,-0.001353,-0.002329
6.363182,-0.00136,-0.002342
6.373187,-0.001367,-0.002355
6.383192,-0.001375,-0.002368
6.393197,-0.001382,-0.00238
6.403202,-0.001389,-0.002393
6.413207,-0.001396,-0.002405
6.423212,-0.001404,-0.002417
6.433217,-0.001411,-0.002429
6.443222,-0.001418,-0.002441
6.453227,-0.001425,-0.002453
6.463232,-0.001431,-0.002465
6.473237,-0.001438,-0.002477
6.483242,-0.001445,-0.002489
6.493247,-0.001452,-0.0025
6.503252,-0.001458,-0.002512
6.513257,-0.001465,-0.002523
6.523262,-0.001472,-0.002534
6.533267,-0.001478,-0.002545
6.543272,-0.001484,-0.002557
6.553277,-0.001491,-0.002568
6.563282,-0.001497,-0.002578
6.573287,-0.001503,-0.002589
6.583292,-0.00151,-0.0026
6.593297,-0.001516,-0.00261
6.603302,-0.001522,-0.002621
6.613307,-0.001528,-0.002631
6.623312,-0.001534,-0.002641
6.633317,-0.00154,-0.002652
6.643322,-0.001545,-0.002662
6.653327,-0.001551,-0.002672
6.663332,-0.001557,-0.002681
6.673337,-0.001563,-0.002691
6.683342,-0.001568,-0.002701
6.693347,-0.001574,-0.00271
6.703352,-0.001579,-0.00272
6.713357,-0.001585,-0.002729
6.723362,-0.00159,-0.002738
6.733367,-0.001595,-0.002747
6.743372,-0.0016,-0.002756
6.753377,-0.001606,-0.002765
6.763382,-0.001611,-0.002774
6.773387,-0.001616,-0.002783
6.783392,-0.001621,-0.002791
6.793397,-0.001625,-0.002799
6.803402,-0.00163,-0.002808
6.813407,-0.001635,-0.002816
6.823412,-0.00164,-0.002824
6.833417,-0.001644,-0.002832
6.843422,-0.001649,-0.00284
6.853427,-0.001653,-0.002848
6.863432,-0.001658,-0.002855
6.873437,-0.001662,-0.002863
6.883442,-0.001667,-0.00287
6.893447,-0.001671,-0.002878
6.903452,-0.001675,-0.002885
6.913457,-0.001679,-0.002892
6.923462,-0.001683,-0.002899
6.933467,-0.001687,-0.002906
6.943472,-0.001691,-0.002912
6.953477,-0.001695,-0.002919
6.963482,-0.001699,-0.002926
6.973487,-0.001702,-0.002932
6.983492,-0.001706,-0.002938
6.993497,-0.00171,-0.002944
7.003502,-0.001713,-0.00295
7.013507,-0.001717,-0.002956
7.023512,-0.00172,-0.002962
7.033517,-0.001723,-0.002968
7.043522,-0.001726,-0.002973
7.053527,-0.00173,-0.002979
7.063532,-0.001733,-0.002984
7.073537,-0.001736,-0.002989
7.083542,-0.001739,-0.002994
