Time (s),Normal Strain,Shear Strain
0.0,0.0,0.0
0.010005,2.3e-05,4e-05
0.02001,4.7e-05,8e-05
0.030015,7e-05,0.000121
0.04002,9.3e-05,0.000161
0.050025,0.000116,0.000201
0.06003,0.00014,0.000241
0.070035,0.000163,0.000282
0.08004,0.000186,0.000322
0.090045,0.000209,0.000362
0.10005,0.000232,0.000402
0.110055,0.000256,0.000442
0.12006,0.000279,0.000482
0.130065,0.000302,0.000522
0.14007,0.000325,0.000563
0.150075,0.000348,0.000603
0.16008,0.000372,0.000643
0.170085,0.000395,0.000683
0.18009,0.000418,0.000723
0.190095,0.000441,0.000763
0.2001,0.000464,0.000803
0.210105,0.000487,0.000842
0.22011,0.00051,0.000882
0.230115,0.000533,0.000922
0.24012,0.000556,0.000962
0.250125,0.000579,0.001002
0.26013,0.000602,0.001041
0.270135,0.000625,0.001081
0.28014,0.000648,0.001121
0.290145,0.000671,0.00116
0.30015,0.000694,0.0012
0.310155,0.000716,0.001239
0.32016,0.000739,0.001279
0.330165,0.000762,0.001318
0.34017,0.000785,0.001358
0.350175,0.000808,0.001397
0.36018,0.00083,0.001436
0.370185,0.000853,0.001475
0.38019,0.000875,0.001514
0.390195,0.000898,0.001553
0.4002,0.000921,0.001592
0.410205,0.000943,0.001631
0.42021,0.000966,0.00167
0.430215,0.000988,0.001709
0.44022,0.00101,0.001748
0.450225,0.001033,0.001786
0.46023,0.001055,0.001825
0.470235,0.001077,0.001864
0.48024,0.0011,0.001902
0.490245,0.001122,0.00194
0.50025,0.001144,0.001979
0.510255,0.001166,0.002017
0.52026,0.001188,0.002055
0.530265,0.00121,0.002093
0.54027,0.001232,0.002131
0.550275,0.001254,0.002169
0.56028,0.001276,0.002207
0.570285,0.001298,0.002244
0.58029,0.001319,0.002282
0.590295,0.001341,0.00232
0.6003,0.001363,0.002357
0.610305,0.001384,0.002394
0.62031,0.001406,0.002432
0.630315,0.001427,0.002469
0.64032,0.001449,0.002506
0.650325,0.00147,0.002543
0.66033,0.001491,0.00258
0.670335,0.001513,0.002617
0.68034,0.001534,0.002653
0.690345,0.001555,0.00269
0.70035,0.001576,0.002726
0.710355,0.001597,0.002763
0.72036,0.001618,0.002799
0.730365,0.001639,0.002835
0.74037,0.00166,0.002871
0.750375,0.001681,0.002907
0.76038,0.001701,0.002943
0.770385,0.001722,0.002978
0.78039,0.001742,0.003014
0.790395,0.001763,0.003049
0.8004,0.001783,0.003085
0.810405,0.001804,0.00312
0.82041,0.001824,0.003155
0.830415,0.001844,0.00319
0.84042,0.001864,0.003225
0.850425,0.001884,0.003259
0.86043,0.001904,0.003294
0.870435,0.001924,0.003328
0.88044,0.001944,0.003363
0.890445,0.001964,0.003397
0.90045,0.001983,0.003431
0.910455,0.002003,0.003465
0.92046,0.002023,0.003498
0.930465,0.002042,0.003532
0.94047,0.002061,0.003566
0.950475,0.002081,0.003599
0.96048,0.0021,0.003632
0.970485,0.002119,0.003665
0.98049,0.002138,0.003698
0.990495,0.002157,0.003731
1.0005,0.002176,0.003763
1.010505,0.002195,0.003796
1.02051,0.002213,0.003828
1.030515,0.002232,0.00386
1.04052,0.00225,0.003892
1.050525,0.002269,0.003924
1.06053,0.002287,0.003956
1.070535,0.002305,0.003988
1.08054,0.002323,0.004019
1.090545,0.002341,0.00405
1.10055,0.002359,0.004081
1.110555,0.002377,0.004112
1.12056,0.002395,0.004143
1.130565,0.002413,0.004173
1.14057,0.00243,0.004204
1.150575,0.002448,0.004234
1.16058,0.002465,0.004264
1.170585,0.002483,0.004294
1.18059,0.0025,0.004324
1.190595,0.002517,0.004353
1.2006,0.002534,0.004383
1.210605,0.002551,0.004412
1.22061,0.002568,0.004441
1.230615,0.002584,0.00447
1.24062,0.002601,0.004499
1.250625,0.002617,0.004527
1.26063,0.002634,0.004556
1.270635,0.00265,0.004584
1.28064,0.002666,0.004612
1.290645,0.002682,0.00464
1.30065,0.002698,0.004667
1.310655,0.002714,0.004695
1.32066,0.00273,0.004722
1.330665,0.002745,0.004749
1.34067,0.002761,0.004776
1.350675,0.002776,0.004803
1.36068,0.002792,0.004829
1.370685,0.002807,0.004855
1.38069,0.002822,0.004881
1.390695,0.002837,0.004907
1.4007,0.002852,0.004933
1.410705,0.002867,0.004959
1.42071,0.002881,0.004984
1.430715,0.002896,0.005009
1.44072,0.00291,0.005034
1.450725,0.002925,0.005059
1.46073,0.002939,0.005083
1.470735,0.002953,0.005108
1.48074,0.002967,0.005132
1.490745,0.002981,0.005156
1.50075,0.002994,0.005179
1.510755,0.003008,0.005203
1.52076,0.003021,0.005226
1.530765,0.003035,0.005249
1.54077,0.003048,0.005272
1.550775,0.003061,0.005295
1.56078,0.003074,0.005318
1.570785,0.003087,0.00534
1.58079,0.0031,0.005362
1.590795,0.003112,0.005384
1.6008,0.003125,0.005405
1.610805,0.003137,0.005427
1.62081,0.00315,0.005448
1.630815,0.003162,0.005469
1.64082,0.003174,0.00549
1.650825,0.003186,0.00551
1.66083,0.003197,0.005531
1.670835,0.003209,0.005551
1.68084,0.003221,0.005571
1.690845,0.003232,0.005591
1.70085,0.003243,0.00561
1.710855,0.003254,0.005629
1.72086,0.003265,0.005648
1.730865,0.003276,0.005667
1.74087,0.003287,0.005686
1.750875,0.003298,0.005704
1.76088,0.003308,0.005722
1.770885,0.003318,0.00574
1.78089,0.003329,0.005758
1.790895,0.003339,0.005775
1.8009,0.003349,0.005792
1.810905,0.003359,0.005809
1.82091,0.003368,0.005826
1.830915,0.003378,0.005843
1.84092,0.003387,0.005859
1.850925,0.003397,0.005875
1.86093,0.003406,0.005891
1.870935,0.003415,0.005907
1.88094,0.003424,0.005922
1.890945,0.003432,0.005937
1.90095,0.003441,0.005952
1.910955,0.003449,0.005967
1.92096,0.003458,0.005981
1.930965,0.003466,0.005995
1.94097,0.003474,0.006009
1.950975,0.003482,0.006023
1.96098,0.00349,0.006036
1.970985,0.003497,0.00605
1.98099,0.003505,0.006063
1.990995,0.003512,0.006075
2.001001,0.00352,0.006088
2.011006,0.003527,0.0061
2.021011,0.003534,0.006112
2.031016,0.003541,0.006124
2.041021,0.003547,0.006136
2.051026,0.003554,0.006147
2.061031,0.00356,0.006158
2.071036,0.003566,0.006169
2.081041,0.003573,0.00618
2.091046,0.003579,0.00619
2.101051,0.003584,0.0062
2.111056,0.00359,0.00621
2.121061,0.003596,0.006219
2.131066,0.003601,0.006229
2.141071,0.003606,0.006238
2.151076,0.003611,0.006247
2.161081,0.003616,0.006255
2.171086,0.003621,0.006264
2.181091,0.003626,0.006272
2.191096,0.003631,0.00628
2.201101,0.003635,0.006287
2.211106,0.003639,0.006295
2.221111,0.003643,0.006302
2.231116,0.003647,0.006309
2.241121,0.003651,0.006316
2.251126,0.003655,0.006322
2.261131,0.003658,0.006328
2.271136,0.003662,0.006334
2.281141,0.003665,0.00634
2.291146,0.003668,0.006345
2.301151,0.003671,0.00635
2.311156,0.003674,0.006355
2.321161,0.003677,0.00636
2.331166,0.003679,0.006364
2.341171,0.003682,0.006368
2.351176,0.003684,0.006372
2.361181,0.003686,0.006376
2.371186,0.003688,0.006379
2.381191,0.00369,0.006382
2.391196,0.003691,0.006385
2.401201,0.003693,0.006388
2.411206,0.003694,0.00639
2.421211,0.003695,0.006392
2.431216,0.003697,0.006394
2.441221,0.003697,0.006396
2.451226,0.003698,0.006397
2.461231,0.003699,0.006398
2.471236,0.003699,0.006399
2.481241,0.0037,0.0064
2.491246,0.0037,0.0064
2.501251,0.0037,0.0064
2.511256,0.0037,0.0064
2.521261,0.0037,0.006399
2.531266,0.003699,0.006399
2.541271,0.003699,0.006398
2.551276,0.003698,0.006397
2.561281,0.003697,0.006395
2.571286,0.003696,0.006394
2.581291,0.003695,0.006392
2.591296,0.003694,0.006389
2.601301,0.003693,0.006387
2.611306,0.003691,0.006384
2.621311,0.003689,0.006381
2.631316,0.003687,0.006378
2.641321,0.003685,0.006375
2.651326,0.003683,0.006371
2.661331,0.003681,0.006367
2.671336,0.003679,0.006363
2.681341,0.003676,0.006359
2.691346,0.003673,0.006354
2.701351,0.00367,0.006349
2.711356,0.003667,0.006344
2.721361,0.003664,0.006338
2.731366,0.003661,0.006332
2.741371,0.003658,0.006327
2.751376,0.003654,0.00632
2.761381,0.00365,0.006314
2.771386,0.003646,0.006307
2.781391,0.003642,0.0063
2.791396,0.003638,0.006293
2.801401,0.003634,0.006286
2.811406,0.003629,0.006278
2.821411,0.003625,0.00627
2.831416,0.00362,0.006262
2.841421,0.003615,0.006253
2.851426,0.00361,0.006245
2.861431,0.003605,0.006236
2.871436,0.0036,0.006226
2.881441,0.003594,0.006217
2.891446,0.003589,0.006207
2.901451,0.003583,0.006197
2.911456,0.003577,0.006187
2.921461,0.003571,0.006177
2.931466,0.003565,0.006166
2.941471,0.003559,0.006155
2.951476,0.003552,0.006144
2.961481,0.003546,0.006133
2.971486,0.003539,0.006121
2.981491,0.003532,0.006109
2.991496,0.003525,0.006097
3.001501,0.003518,0.006085
3.011506,0.003511,0.006072
3.021511,0.003503,0.006059
3.031516,0.003496,0.006046
3.041521,0.003488,0.006033
3.051526,0.00348,0.00602
3.061531,0.003472,0.006006
3.071536,0.003464,0.005992
3.081541,0.003456,0.005977
3.091546,0.003447,0.005963
3.101551,0.003439,0.005948
3.111556,0.00343,0.005933
3.121561,0.003421,0.005918
3.131566,0.003412,0.005903
3.141571,0.003403,0.005887
3.151576,0.003394,0.005871
3.161581,0.003385,0.005855
3.171586,0.003375,0.005839
3.181591,0.003366,0.005822
3.191596,0.003356,0.005805
3.201601,0.003346,0.005788
3.211606,0.003336,0.005771
3.221611,0.003326,0.005753
3.231616,0.003316,0.005736
3.241621,0.003306,0.005718
3.251626,0.003295,0.005699
3.261631,0.003284,0.005681
3.271636,0.003274,0.005662
3.281641,0.003263,0.005644
3.291646,0.003252,0.005624
3.301651,0.00324,0.005605
3.311656,0.003229,0.005586
3.321661,0.003218,0.005566
3.331666,0.003206,0.005546
3.341671,0.003195,0.005526
3.351676,0.003183,0.005505
3.361681,0.003171,0.005485
3.371686,0.003159,0.005464
3.381691,0.003147,0.005443
3.391696,0.003134,0.005422
3.401701,0.003122,0.0054
3.411706,0.003109,0.005378
3.421711,0.003097,0.005356
3.431716,0.003084,0.005334
3.441721,0.003071,0.005312
3.451726,0.003058,0.005289
3.461731,0.003045,0.005267
3.471736,0.003032,0.005244
3.481741,0.003018,0.005221
3.491746,0.003005,0.005197
3.501751,0.002991,0.005174
3.511756,0.002977,0.00515
3.521761,0.002963,0.005126
3.531766,0.002949,0.005102
3.541771,0.002935,0.005077
3.551776,0.002921,0.005053
3.561781,0.002907,0.005028
3.571786,0.002892,0.005003
3.581791,0.002878,0.004978
3.591796,0.002863,0.004952
3.601801,0.002848,0.004927
3.611806,0.002833,0.004901
3.621811,0.002818,0.004875
3.631816,0.002803,0.004849
3.641821,0.002788,0.004822
3.651826,0.002773,0.004796
3.661831,0.002757,0.004769
3.671836,0.002742,0.004742
3.681841,0.002726,0.004715
3.691846,0.00271,0.004688
3.701851,0.002694,0.00466
3.711856,0.002678,0.004633
3.721861,0.002662,0.004605
3.731866,0.002646,0.004577
3.741871,0.00263,0.004549
3.751876,0.002613,0.00452
3.761881,0.002597,0.004492
3.771886,0.00258,0.004463
3.781891,0.002563,0.004434
3.791896,0.002547,0.004405
3.801901,0.00253,0.004376
3.811906,0.002513,0.004346
3.821911,0.002495,0.004316
3.831916,0.002478,0.004287
3.841921,0.002461,0.004257
3.851926,0.002443,0.004227
3.861931,0.002426,0.004196
3.871936,0.002408,0.004166
3.881941,0.002391,0.004135
3.891946,0.002373,0.004104
3.901951,0.002355,0.004073
3.911956,0.002337,0.004042
3.921961,0.002319,0.004011
3.931966,0.002301,0.00398
3.941971,0.002282,0.003948
3.951976,0.002264,0.003916
3.961981,0.002246,0.003884
3.971986,0.002227,0.003852
3.981991,0.002209,0.00382
3.991996,0.00219,0.003788
4.002001,0.002171,0.003755
4.012006,0.002152,0.003723
4.022011,0.002133,0.00369
4.032016,0.002114,0.003657
4.042021,0.002095,0.003624
4.052026,0.002076,0.003591
4.062031,0.002057,0.003557
4.072036,0.002037,0.003524
4.082041,0.002018,0.00349
4.092046,0.001998,0.003456
4.102051,0.001979,0.003422
4.112056,0.001959,0.003388
4.122061,0.001939,0.003354
4.132066,0.001919,0.00332
4.142071,0.001899,0.003285
4.152076,0.001879,0.003251
4.162081,0.001859,0.003216
4.172086,0.001839,0.003181
4.182091,0.001819,0.003146
4.192096,0.001799,0.003111
4.202101,0.001778,0.003076
4.212106,0.001758,0.00304
4.222111,0.001737,0.003005
4.232116,0.001717,0.002969
4.242121,0.001696,0.002934
4.252126,0.001675,0.002898
4.262131,0.001655,0.002862
4.272136,0.001634,0.002826
4.282141,0.001613,0.00279
4.292146,0.001592,0.002754
4.302151,0.001571,0.002717
4.312156,0.00155,0.002681
4.322161,0.001529,0.002644
4.332166,0.001507,0.002607
4.342171,0.001486,0.002571
4.352176,0.001465,0.002534
4.362181,0.001443,0.002497
4.372186,0.001422,0.00246
4.382191,0.0014,0.002422
4.392196,0.001379,0.002385
4.402201,0.001357,0.002348
4.412206,0.001336,0.00231
4.422211,0.001314,0.002273
4.432216,0.001292,0.002235
4.442221,0.00127,0.002197
4.452226,0.001248,0.002159
4.462231,0.001227,0.002122
4.472236,0.001205,0.002084
4.482241,0.001183,0.002046
4.492246,0.00116,0.002007
4.502251,0.001138,0.001969
4.512256,0.001116,0.001931
4.522261,0.001094,0.001892
4.532266,0.001072,0.001854
4.542271,0.00105,0.001815
4.552276,0.001027,0.001777
4.562281,0.001005,0.001738
4.572286,0.000982,0.001699
4.582291,0.00096,0.00166
4.592296,0.000937,0.001622
4.602301,0.000915,0.001583
4.612306,0.000892,0.001544
4.622311,0.00087,0.001505
4.632316,0.000847,0.001465
4.642321,0.000825,0.001426
4.652326,0.000802,0.001387
4.662331,0.000779,0.001348
4.672336,0.000756,0.001308
4.682341,0.000734,0.001269
4.692346,0.000711,0.001229
4.702351,0.000688,0.00119
4.712356,0.000665,0.00115
4.722361,0.000642,0.001111
4.732366,0.000619,0.001071
4.742371,0.000596,0.001031
4.752376,0.000573,0.000992
4.762381,0.00055,0.000952
4.772386,0.000527,0.000912
4.782391,0.000504,0.000872
4.792396,0.000481,0.000832
4.802401,0.000458,0.000793
4.812406,0.000435,0.000753
4.822411,0.000412,0.000713
4.832416,0.000389,0.000673
4.842421,0.000366,0.000633
4.852426,0.000343,0.000593
4.862431,0.000319,0.000553
4.872436,0.000296,0.000512
4.882441,0.000273,0.000472
4.892446,0.00025,0.000432
4.902451,0.000227,0.000392
4.912456,0.000203,0.000352
4.922461,0.00018,0.000312
4.932466,0.000157,0.000271
4.942471,0.000134,0.000231
4.952476,0.00011,0.000191
4.962481,8.7e-05,0.000151
4.972486,6.4e-05,0.000111
4.982491,4.1e-05,7e-05
4.992496,1.7e-05,3e-05
5.002501,-6e-06,-1e-05
5.012506,-2.9e-05,-5e-05
5.022511,-5.2e-05,-9.1e-05
5.032516,-7.6e-05,-0.000131
5.042521,-9.9e-05,-0.000171
5.052526,-0.000122,-0.000211
5.062531,-0.000145,-0.000251
5.072536,-0.000169,-0.000292
5.082541,-0.000192,-0.000332
5.092546,-0.000215,-0.000372
5.102551,-0.000238,-0.000412
5.112556,-0.000261,-0.000452
5.122561,-0.000285,-0.000492
5.132566,-0.000308,-0.000532
5.142571,-0.000331,-0.000573
5.152576,-0.000354,-0.000613
5.162581,-0.000377,-0.000653
5.172586,-0.0004,-0.000693
5.182591,-0.000424,-0.000733
5.192596,-0.000447,-0.000773
5.202601,-0.00047,-0.000813
5.212606,-0.000493,-0.000852
5.222611,-0.000516,-0.000892
5.232616,-0.000539,-0.000932
5.242621,-0.000562,-0.000972
5.252626,-0.000585,-0.001012
5.262631,-0.000608,-0.001051
5.272636,-0.000631,-0.001091
5.282641,-0.000654,-0.001131
5.292646,-0.000677,-0.00117
5.302651,-0.000699,-0.00121
5.312656,-0.000722,-0.001249
5.322661,-0.000745,-0.001289
5.332666,-0.000768,-0.001328
5.342671,-0.00079,-0.001367
5.352676,-0.000813,-0.001407
5.362681,-0.000836,-0.001446
5.372686,-0.000859,-0.001485
5.382691,-0.000881,-0.001524
5.392696,-0.000904,-0.001563
5.402701,-0.000926,-0.001602
5.412706,-0.000949,-0.001641
5.422711,-0.000971,-0.00168
5.432716,-0.000994,-0.001719
5.442721,-0.001016,-0.001757
5.452726,-0.001038,-0.001796
5.462731,-0.001061,-0.001835
5.472736,-0.001083,-0.001873
5.482741,-0.001105,-0.001912
5.492746,-0.001127,-0.00195
5.502751,-0.001149,-0.001988
5.512756,-0.001172,-0.002026
5.522761,-0.001194,-0.002065
5.532766,-0.001216,-0.002103
5.542771,-0.001238,-0.002141
5.552776,-0.001259,-0.002178
5.562781,-0.001281,-0.002216
5.572786,-0.001303,-0.002254
5.582791,-0.001325,-0.002292
5.592796,-0.001346,-0.002329
5.602801,-0.001368,-0.002366
5.612806,-0.00139,-0.002404
5.622811,-0.001411,-0.002441
5.632816,-0.001433,-0.002478
5.642821,-0.001454,-0.002515
5.652826,-0.001475,-0.002552
5.662831,-0.001497,-0.002589
5.672836,-0.001518,-0.002626
5.682841,-0.001539,-0.002662
5.692846,-0.00156,-0.002699
5.702851,-0.001581,-0.002735
5.712856,-0.001602,-0.002772
5.722861,-0.001623,-0.002808
5.732866,-0.001644,-0.002844
5.742871,-0.001665,-0.00288
5.752876,-0.001686,-0.002916
5.762881,-0.001706,-0.002952
5.772886,-0.001727,-0.002987
5.782891,-0.001748,-0.003023
5.792896,-0.001768,-0.003058
5.802901,-0.001788,-0.003093
5.812906,-0.001809,-0.003129
5.822911,-0.001829,-0.003164
5.832916,-0.001849,-0.003199
5.842921,-0.001869,-0.003233
5.852926,-0.001889,-0.003268
5.862931,-0.001909,-0.003303
5.872936,-0.001929,-0.003337
5.882941,-0.001949,-0.003371
5.892946,-0.001969,-0.003405
5.902951,-0.001988,-0.003439
5.912956,-0.002008,-0.003473
5.922961,-0.002027,-0.003507
5.932966,-0.002047,-0.00354
5.942971,-0.002066,-0.003574
5.952976,-0.002085,-0.003607
5.962981,-0.002105,-0.00364
5.972986,-0.002124,-0.003673
5.982991,-0.002143,-0.003706
5.992996,-0.002162,-0.003739
6.003002,-0.00218,-0.003772
6.013007,-0.002199,-0.003804
6.023012,-0.002218,-0.003836
6.033017,-0.002236,-0.003868
6.043022,-0.002255,-0.0039
6.053027,-0.002273,-0.003932
6.063032,-0.002292,-0.003964
6.073037,-0.00231,-0.003995
6.083042,-0.002328,-0.004027
6.093047,-0.002346,-0.004058
6.103052,-0.002364,-0.004089
6.113057,-0.002382,-0.00412
6.123062,-0.0024,-0.004151
6.133067,-0.002417,-0.004181
6.143072,-0.002435,-0.004211
6.153077,-0.002452,-0.004242
6.163082,-0.00247,-0.004272
6.173087,-0.002487,-0.004302
6.183092,-0.002504,-0.004331
6.193097,-0.002521,-0.004361
6.203102,-0.002538,-0.00439
6.213107,-0.002555,-0.004419
6.223112,-0.002572,-0.004448
6.233117,-0.002588,-0.004477
6.243122,-0.002605,-0.004506
6.253127,-0.002621,-0.004534
6.263132,-0.002638,-0.004563
6.273137,-0.002654,-0.004591
6.283142,-0.00267,-0.004619
6.293147,-0.002686,-0.004646
6.303152,-0.002702,-0.004674
6.313157,-0.002718,-0.004701
6.323162,-0.002734,-0.004729
6.333167,-0.002749,-0.004756
6.343172,-0.002765,-0.004783
6.353177,-0.00278,-0.004809
6.363182,-0.002796,-0.004836
6.373187,-0.002811,-0.004862
6.383192,-0.002826,-0.004888
6.393197,-0.002841,-0.004914
6.403202,-0.002856,-0.004939
6.413207,-0.00287,-0.004965
6.423212,-0.002885,-0.00499
6.433217,-0.002899,-0.005015
6.443222,-0.002914,-0.00504
6.453227,-0.002928,-0.005065
6.463232,-0.002942,-0.005089
6.473237,-0.002956,-0.005114
6.483242,-0.00297,-0.005138
6.493247,-0.002984,-0.005162
6.503252,-0.002998,-0.005185
6.513257,-0.003011,-0.005209
6.523262,-0.003025,-0.005232
6.533267,-0.003038,-0.005255
6.543272,-0.003051,-0.005278
6.553277,-0.003064,-0.005301
6.563282,-0.003077,-0.005323
6.573287,-0.00309,-0.005345
6.583292,-0.003103,-0.005367
6.593297,-0.003116,-0.005389
6.603302,-0.003128,-0.005411
6.613307,-0.00314,-0.005432
6.623312,-0.003153,-0.005453
6.633317,-0.003165,-0.005474
6.643322,-0.003177,-0.005495
6.653327,-0.003189,-0.005516
6.663332,-0.0032,-0.005536
6.673337,-0.003212,-0.005556
6.683342,-0.003224,-0.005576
6.693347,-0.003235,-0.005595
6.703352,-0.003246,-0.005615
6.713357,-0.003257,-0.005634
6.723362,-0.003268,-0.005653
6.733367,-0.003279,-0.005672
6.743372,-0.00329,-0.00569
6.753377,-0.0033,-0.005709
6.763382,-0.003311,-0.005727
6.773387,-0.003321,-0.005745
6.783392,-0.003331,-0.005762
6.793397,-0.003341,-0.00578
6.803402,-0.003351,-0.005797
6.813407,-0.003361,-0.005814
6.823412,-0.003371,-0.00583
6.833417,-0.00338,-0.005847
6.843422,-0.00339,-0.005863
6.853427,-0.003399,-0.005879
6.863432,-0.003408,-0.005895
6.873437,-0.003417,-0.00591
6.883442,-0.003426,-0.005926
6.893447,-0.003435,-0.005941
6.903452,-0.003443,-0.005956
6.913457,-0.003452,-0.00597
6.923462,-0.00346,-0.005985
6.933467,-0.003468,-0.005999
6.943472,-0.003476,-0.006013
6.953477,-0.003484,-0.006026
6.963482,-0.003492,-0.00604
6.973487,-0.003499,-0.006053
6.983492,-0.003507,-0.006066
6.993497,-0.003514,-0.006079
7.003502,-0.003521,-0.006091
7.013507,-0.003528,-0.006103
7.023512,-0.003535,-0.006115
7.033517,-0.003542,-0.006127
7.043522,-0.003549,-0.006139
7.053527,-0.003555,-0.00615
7.063532,-0.003562,-0.006161
7.073537,-0.003568,-0.006172
7.083542,-0.003574,-0.006182
7.093547,-0.00358,-0.006192
7.103552,-0.003586,-0.006202
7.113557,-0.003591,-0.006212
7.123562,-0.003597,-0.006222
7.133567,-0.003602,-0.006231
7.143572,-0.003608,-0.00624
7.153577,-0.003613,-0.006249
7.163582,-0.003618,-0.006258
7.173587,-0.003622,-0.006266
7.183592,-0.003627,-0.006274
7.193597,-0.003632,-0.006282
7.203602,-0.003636,-0.006289
7.213607,-0.00364,-0.006297
7.223612,-0.003644,-0.006304
7.233617,-0.003648,-0.006311
7.243622,-0.003652,-0.006317
7.253627,-0.003656,-0.006323
7.263632,-0.003659,-0.00633
7.273637,-0.003663,-0.006335
7.283642,-0.003666,-0.006341
7.293647,-0.003669,-0.006346
7.303652,-0.003672,-0.006351
7.313657,-0.003675,-0.006356
7.323662,-0.003677,-0.006361
7.333667,-0.00368,-0.006365
