Time (s),Normal Strain,Shear Strain
0.0,0.0,0.0
0.010005,6.7e-05,0.000116
0.02001,0.000133,0.000231
0.030015,0.0002,0.000347
0.04002,0.000267,0.000463
0.050025,0.000333,0.000578
0.06003,0.0004,0.000694
0.070035,0.000466,0.000809
0.08004,0.000533,0.000925
0.090045,0.000599,0.00104
0.10005,0.000666,0.001156
0.110055,0.000732,0.001271
0.12006,0.000799,0.001387
0.130065,0.000865,0.001502
0.14007,0.000932,0.001617
0.150075,0.000998,0.001732
0.16008,0.001064,0.001848
0.170085,0.001131,0.001963
0.18009,0.001197,0.002078
0.190095,0.001263,0.002192
0.2001,0.001329,0.002307
0.210105,0.001395,0.002422
0.22011,0.001461,0.002537
0.230115,0.001527,0.002651
0.24012,0.001593,0.002766
0.250125,0.001659,0.00288
0.26013,0.001725,0.002994
0.270135,0.001791,0.003108
0.28014,0.001856,0.003222
0.290145,0.001922,0.003336
0.30015,0.001987,0.00345
0.310155,0.002053,0.003563
0.32016,0.002118,0.003676
0.330165,0.002183,0.00379
0.34017,0.002248,0.003903
0.350175,0.002313,0.004016
0.36018,0.002378,0.004129
0.370185,0.002443,0.004241
0.38019,0.002508,0.004354
0.390195,0.002573,0.004466
0.4002,0.002637,0.004578
0.410205,0.002702,0.00469
0.42021,0.002766,0.004802
0.430215,0.002831,0.004913
0.44022,0.002895,0.005025
0.450225,0.002959,0.005136
0.46023,0.003023,0.005247
0.470235,0.003086,0.005358
0.48024,0.00315,0.005468
0.490245,0.003214,0.005579
0.50025,0.003277,0.005689
0.510255,0.00334,0.005799
0.52026,0.003404,0.005908
0.530265,0.003467,0.006018
0.54027,0.00353,0.006127
0.550275,0.003592,0.006236
0.56028,0.003655,0.006344
0.570285,0.003717,0.006453
0.58029,0.00378,0.006561
0.590295,0.003842,0.006669
0.6003,0.003904,0.006777
0.610305,0.003966,0.006884
0.62031,0.004028,0.006991
0.630315,0.004089,0.007098
0.64032,0.004151,0.007205
0.650325,0.004212,0.007311
0.66033,0.004273,0.007417
0.670335,0.004334,0.007523
0.68034,0.004394,0.007628
0.690345,0.004455,0.007733
0.70035,0.004515,0.007838
0.710355,0.004576,0.007942
0.72036,0.004636,0.008047
0.730365,0.004695,0.008151
0.74037,0.004755,0.008254
0.750375,0.004815,0.008357
0.76038,0.004874,0.00846
0.770385,0.004933,0.008563
0.78039,0.004992,0.008665
0.790395,0.00505,0.008767
0.8004,0.005109,0.008868
0.810405,0.005167,0.008969
0.82041,0.005225,0.00907
0.830415,0.005283,0.009171
0.84042,0.005341,0.009271
0.850425,0.005398,0.009371
0.86043,0.005456,0.00947
0.870435,0.005513,0.009569
0.88044,0.005569,0.009668
0.890445,0.005626,0.009766
0.90045,0.005682,0.009864
0.910455,0.005738,0.009961
0.92046,0.005794,0.010058
0.930465,0.00585,0.010155
0.94047,0.005905,0.010251
0.950475,0.005961,0.010347
0.96048,0.006016,0.010442
0.970485,0.00607,0.010537
0.98049,0.006125,0.010632
0.990495,0.006179,0.010726
1.0005,0.006233,0.01082
1.010505,0.006287,0.010913
1.02051,0.006341,0.011006
1.030515,0.006394,0.011099
1.04052,0.006447,0.011191
1.050525,0.0065,0.011282
1.06053,0.006552,0.011373
1.070535,0.006604,0.011464
1.08054,0.006656,0.011554
1.090545,0.006708,0.011644
1.10055,0.00676,0.011734
1.110555,0.006811,0.011822
1.12056,0.006862,0.011911
1.130565,0.006912,0.011999
1.14057,0.006963,0.012086
1.150575,0.007013,0.012173
1.16058,0.007063,0.01226
1.170585,0.007112,0.012346
1.18059,0.007161,0.012431
1.190595,0.00721,0.012516
1.2006,0.007259,0.012601
1.210605,0.007308,0.012685
1.22061,0.007356,0.012768
1.230615,0.007403,0.012851
1.24062,0.007451,0.012934
1.250625,0.007498,0.013016
1.26063,0.007545,0.013097
1.270635,0.007592,0.013178
1.28064,0.007638,0.013259
1.290645,0.007684,0.013339
1.30065,0.00773,0.013418
1.310655,0.007775,0.013497
1.32066,0.007821,0.013575
1.330665,0.007865,0.013653
1.34067,0.00791,0.01373
1.350675,0.007954,0.013807
1.36068,0.007998,0.013883
1.370685,0.008042,0.013959
1.38069,0.008085,0.014034
1.390695,0.008128,0.014109
1.4007,0.00817,0.014183
1.410705,0.008213,0.014256
1.42071,0.008255,0.014329
1.430715,0.008296,0.014401
1.44072,0.008338,0.014473
1.450725,0.008379,0.014544
1.46073,0.008419,0.014615
1.470735,0.00846,0.014685
1.48074,0.0085,0.014754
1.490745,0.008539,0.014823
1.50075,0.008579,0.014891
1.510755,0.008617,0.014959
1.52076,0.008656,0.015026
1.530765,0.008694,0.015092
1.54077,0.008732,0.015158
1.550775,0.00877,0.015223
1.56078,0.008807,0.015288
1.570785,0.008844,0.015352
1.58079,0.008881,0.015416
1.590795,0.008917,0.015478
1.6008,0.008953,0.015541
1.610805,0.008988,0.015602
1.62081,0.009023,0.015663
1.630815,0.009058,0.015724
1.64082,0.009093,0.015783
1.650825,0.009127,0.015843
1.66083,0.00916,0.015901
1.670835,0.009194,0.015959
1.68084,0.009227,0.016016
1.690845,0.009259,0.016073
1.70085,0.009292,0.016129
1.710855,0.009323,0.016184
1.72086,0.009355,0.016239
1.730865,0.009386,0.016293
1.74087,0.009417,0.016346
1.750875,0.009447,0.016399
1.76088,0.009477,0.016451
1.770885,0.009507,0.016503
1.78089,0.009536,0.016554
1.790895,0.009565,0.016604
1.8009,0.009594,0.016653
1.810905,0.009622,0.016702
1.82091,0.00965,0.01675
1.830915,0.009677,0.016798
1.84092,0.009704,0.016845
1.850925,0.009731,0.016891
1.86093,0.009757,0.016936
1.870935,0.009783,0.016981
1.88094,0.009808,0.017026
1.890945,0.009833,0.017069
1.90095,0.009858,0.017112
1.910955,0.009882,0.017154
1.92096,0.009906,0.017196
1.930965,0.00993,0.017236
1.94097,0.009953,0.017277
1.950975,0.009976,0.017316
1.96098,0.009998,0.017355
1.970985,0.01002,0.017393
1.98099,0.010041,0.01743
1.990995,0.010063,0.017467
2.001001,0.010083,0.017503
2.011006,0.010104,0.017538
2.021011,0.010124,0.017573
2.031016,0.010143,0.017607
2.041021,0.010162,0.01764
2.051026,0.010181,0.017673
2.061031,0.010199,0.017705
2.071036,0.010217,0.017736
2.081041,0.010235,0.017766
2.091046,0.010252,0.017796
2.101051,0.010269,0.017825
2.111056,0.010285,0.017853
2.121061,0.010301,0.017881
2.131066,0.010316,0.017908
2.141071,0.010332,0.017934
2.151076,0.010346,0.01796
2.161081,0.010361,0.017984
2.171086,0.010374,0.018008
2.181091,0.010388,0.018032
2.191096,0.010401,0.018055
2.201101,0.010414,0.018076
2.211106,0.010426,0.018098
2.221111,0.010438,0.018118
2.231116,0.010449,0.018138
2.241121,0.01046,0.018157
2.251126,0.010471,0.018175
2.261131,0.010481,0.018193
2.271136,0.010491,0.01821
2.281141,0.0105,0.018226
2.291146,0.010509,0.018242
2.301151,0.010517,0.018257
2.311156,0.010525,0.018271
2.321161,0.010533,0.018284
2.331166,0.01054,0.018297
2.341171,0.010547,0.018308
2.351176,0.010554,0.01832
2.361181,0.01056,0.01833
2.371186,0.010565,0.01834
2.381191,0.01057,0.018349
2.391196,0.010575,0.018357
2.401201,0.01058,0.018365
2.411206,0.010584,0.018371
2.421211,0.010587,0.018377
2.431216,0.01059,0.018383
2.441221,0.010593,0.018387
2.451226,0.010595,0.018391
2.461231,0.010597,0.018395
2.471236,0.010598,0.018397
2.481241,0.010599,0.018399
2.491246,0.0106,0.0184
2.501251,0.0106,0.0184
2.511256,0.0106,0.0184
2.521261,0.010599,0.018398
2.531266,0.010598,0.018396
2.541271,0.010596,0.018394
2.551276,0.010594,0.01839
2.561281,0.010592,0.018386
2.571286,0.010589,0.018382
2.581291,0.010586,0.018376
2.591296,0.010583,0.01837
2.601301,0.010579,0.018363
2.611306,0.010574,0.018355
2.621311,0.010569,0.018347
2.631316,0.010564,0.018337
2.641321,0.010558,0.018328
2.651326,0.010552,0.018317
2.661331,0.010546,0.018306
2.671336,0.010539,0.018293
2.681341,0.010531,0.018281
2.691346,0.010523,0.018267
2.701351,0.010515,0.018253
2.711356,0.010507,0.018238
2.721361,0.010498,0.018222
2.731366,0.010488,0.018206
2.741371,0.010478,0.018189
2.751376,0.010468,0.018171
2.761381,0.010457,0.018152
2.771386,0.010446,0.018133
2.781391,0.010435,0.018113
2.791396,0.010423,0.018092
2.801401,0.01041,0.018071
2.811406,0.010398,0.018049
2.821411,0.010385,0.018026
2.831416,0.010371,0.018003
2.841421,0.010357,0.017978
2.851426,0.010343,0.017953
2.861431,0.010328,0.017928
2.871436,0.010313,0.017901
2.881441,0.010297,0.017874
2.891446,0.010281,0.017846
2.901451,0.010265,0.017818
2.911456,0.010248,0.017789
2.921461,0.010231,0.017759
2.931466,0.010213,0.017728
2.941471,0.010195,0.017697
2.951476,0.010176,0.017665
2.961481,0.010158,0.017632
2.971486,0.010138,0.017598
2.981491,0.010119,0.017564
2.991496,0.010099,0.01753
3.001501,0.010078,0.017494
3.011506,0.010057,0.017458
3.021511,0.010036,0.017421
3.031516,0.010014,0.017383
3.041521,0.009992,0.017345
3.051526,0.00997,0.017306
3.061531,0.009947,0.017267
3.071536,0.009924,0.017226
3.081541,0.0099,0.017185
3.091546,0.009876,0.017144
3.101551,0.009852,0.017101
3.111556,0.009827,0.017058
3.121561,0.009802,0.017015
3.131566,0.009776,0.01697
3.141571,0.00975,0.016925
3.151576,0.009724,0.016879
3.161581,0.009697,0.016833
3.171586,0.00967,0.016786
3.181591,0.009643,0.016738
3.191596,0.009615,0.01669
3.201601,0.009587,0.016641
3.211606,0.009558,0.016591
3.221611,0.009529,0.016541
3.231616,0.0095,0.01649
3.241621,0.00947,0.016438
3.251626,0.00944,0.016386
3.261631,0.009409,0.016333
3.271636,0.009378,0.016279
3.281641,0.009347,0.016225
3.291646,0.009316,0.01617
3.301651,0.009284,0.016115
3.311656,0.009251,0.016059
3.321661,0.009218,0.016002
3.331666,0.009185,0.015944
3.341671,0.009152,0.015886
3.351676,0.009118,0.015828
3.361681,0.009084,0.015768
3.371686,0.009049,0.015709
3.381691,0.009015,0.015648
3.391696,0.008979,0.015587
3.401701,0.008944,0.015525
3.411706,0.008908,0.015463
3.421711,0.008872,0.0154
3.431716,0.008835,0.015336
3.441721,0.008798,0.015272
3.451726,0.008761,0.015207
3.461731,0.008723,0.015142
3.471736,0.008685,0.015076
3.481741,0.008646,0.015009
3.491746,0.008608,0.014942
3.501751,0.008569,0.014874
3.511756,0.008529,0.014806
3.521761,0.00849,0.014737
3.531766,0.00845,0.014667
3.541771,0.008409,0.014597
3.551776,0.008368,0.014526
3.561781,0.008327,0.014455
3.571786,0.008286,0.014383
3.581791,0.008244,0.014311
3.591796,0.008202,0.014238
3.601801,0.00816,0.014164
3.611806,0.008117,0.01409
3.621811,0.008074,0.014015
3.631816,0.008031,0.01394
3.641821,0.007987,0.013864
3.651826,0.007943,0.013788
3.661831,0.007899,0.013711
3.671836,0.007854,0.013634
3.681841,0.007809,0.013556
3.691846,0.007764,0.013477
3.701851,0.007719,0.013398
3.711856,0.007673,0.013319
3.721861,0.007627,0.013239
3.731866,0.00758,0.013158
3.741871,0.007534,0.013077
3.751876,0.007486,0.012995
3.761881,0.007439,0.012913
3.771886,0.007392,0.012831
3.781891,0.007344,0.012747
3.791896,0.007295,0.012664
3.801901,0.007247,0.01258
3.811906,0.007198,0.012495
3.821911,0.007149,0.01241
3.831916,0.0071,0.012324
3.841921,0.00705,0.012238
3.851926,0.007,0.012151
3.861931,0.00695,0.012064
3.871936,0.0069,0.011977
3.881941,0.006849,0.011889
3.891946,0.006798,0.0118
3.901951,0.006747,0.011711
3.911956,0.006695,0.011622
3.921961,0.006643,0.011532
3.931966,0.006591,0.011442
3.941971,0.006539,0.011351
3.951976,0.006486,0.011259
3.961981,0.006434,0.011168
3.971986,0.00638,0.011076
3.981991,0.006327,0.010983
3.991996,0.006274,0.01089
4.002001,0.00622,0.010797
4.012006,0.006166,0.010703
4.022011,0.006111,0.010608
4.032016,0.006057,0.010514
4.042021,0.006002,0.010418
4.052026,0.005947,0.010323
4.062031,0.005892,0.010227
4.072036,0.005836,0.010131
4.082041,0.00578,0.010034
4.092046,0.005724,0.009937
4.102051,0.005668,0.009839
4.112056,0.005612,0.009741
4.122061,0.005555,0.009643
4.132066,0.005498,0.009544
4.142071,0.005441,0.009445
4.152076,0.005384,0.009346
4.162081,0.005326,0.009246
4.172086,0.005269,0.009146
4.182091,0.005211,0.009045
4.192096,0.005153,0.008944
4.202101,0.005094,0.008843
4.212106,0.005036,0.008741
4.222111,0.004977,0.008639
4.232116,0.004918,0.008537
4.242121,0.004859,0.008434
4.252126,0.0048,0.008332
4.262131,0.00474,0.008228
4.272136,0.00468,0.008125
4.282141,0.004621,0.008021
4.292146,0.004561,0.007916
4.302151,0.0045,0.007812
4.312156,0.00444,0.007707
4.322161,0.004379,0.007602
4.332166,0.004319,0.007496
4.342171,0.004258,0.00739
4.352176,0.004196,0.007284
4.362181,0.004135,0.007178
4.372186,0.004074,0.007071
4.382191,0.004012,0.006964
4.392196,0.00395,0.006857
4.402201,0.003888,0.00675
4.412206,0.003826,0.006642
4.422211,0.003764,0.006534
4.432216,0.003702,0.006426
4.442221,0.003639,0.006317
4.452226,0.003577,0.006209
4.462231,0.003514,0.0061
4.472236,0.003451,0.00599
4.482241,0.003388,0.005881
4.492246,0.003325,0.005771
4.502251,0.003261,0.005661
4.512256,0.003198,0.005551
4.522261,0.003134,0.005441
4.532266,0.003071,0.00533
4.542271,0.003007,0.005219
4.552276,0.002943,0.005108
4.562281,0.002879,0.004997
4.572286,0.002814,0.004886
4.582291,0.00275,0.004774
4.592296,0.002686,0.004662
4.602301,0.002621,0.00455
4.612306,0.002557,0.004438
4.622311,0.002492,0.004326
4.632316,0.002427,0.004213
4.642321,0.002362,0.0041
4.652326,0.002297,0.003988
4.662331,0.002232,0.003875
4.672336,0.002167,0.003761
4.682341,0.002102,0.003648
4.692346,0.002036,0.003535
4.702351,0.001971,0.003421
4.712356,0.001905,0.003307
4.722361,0.00184,0.003194
4.732366,0.001774,0.00308
4.742371,0.001708,0.002965
4.752376,0.001643,0.002851
4.762381,0.001577,0.002737
4.772386,0.001511,0.002622
4.782391,0.001445,0.002508
4.792396,0.001379,0.002393
4.802401,0.001313,0.002279
4.812406,0.001247,0.002164
4.822411,0.00118,0.002049
4.832416,0.001114,0.001934
4.842421,0.001048,0.001819
4.852426,0.000981,0.001704
4.862431,0.000915,0.001588
4.872436,0.000849,0.001473
4.882441,0.000782,0.001358
4.892446,0.000716,0.001242
4.902451,0.000649,0.001127
4.912456,0.000583,0.001012
4.922461,0.000516,0.000896
4.932466,0.00045,0.000781
4.942471,0.000383,0.000665
4.952476,0.000316,0.000549
4.962481,0.00025,0.000434
4.972486,0.000183,0.000318
4.982491,0.000117,0.000202
4.992496,5e-05,8.7e-05
5.002501,-1.7e-05,-2.9e-05
5.012506,-8.3e-05,-0.000145
5.022511,-0.00015,-0.00026
5.032516,-0.000217,-0.000376
5.042521,-0.000283,-0.000492
5.052526,-0.00035,-0.000607
5.062531,-0.000416,-0.000723
5.072536,-0.000483,-0.000838
5.082541,-0.000549,-0.000954
5.092546,-0.000616,-0.001069
5.102551,-0.000683,-0.001185
5.112556,-0.000749,-0.0013
5.122561,-0.000815,-0.001416
5.132566,-0.000882,-0.001531
5.142571,-0.000948,-0.001646
5.152576,-0.001015,-0.001761
5.162581,-0.001081,-0.001876
5.172586,-0.001147,-0.001991
5.182591,-0.001213,-0.002106
5.192596,-0.00128,-0.002221
5.202601,-0.001346,-0.002336
5.212606,-0.001412,-0.002451
5.222611,-0.001478,-0.002565
5.232616,-0.001544,-0.00268
5.242621,-0.00161,-0.002794
5.252626,-0.001675,-0.002908
5.262631,-0.001741,-0.003023
5.272636,-0.001807,-0.003137
5.282641,-0.001873,-0.00325
5.292646,-0.001938,-0.003364
5.302651,-0.002004,-0.003478
5.312656,-0.002069,-0.003591
5.322661,-0.002134,-0.003705
5.332666,-0.0022,-0.003818
5.342671,-0.002265,-0.003931
5.352676,-0.00233,-0.004044
5.362681,-0.002395,-0.004157
5.372686,-0.00246,-0.004269
5.382691,-0.002524,-0.004382
5.392696,-0.002589,-0.004494
5.402701,-0.002654,-0.004606
5.412706,-0.002718,-0.004718
5.422711,-0.002782,-0.00483
5.432716,-0.002847,-0.004941
5.442721,-0.002911,-0.005053
5.452726,-0.002975,-0.005164
5.462731,-0.003039,-0.005275
5.472736,-0.003102,-0.005385
5.482741,-0.003166,-0.005496
5.492746,-0.00323,-0.005606
5.502751,-0.003293,-0.005716
5.512756,-0.003356,-0.005826
5.522761,-0.003419,-0.005936
5.532766,-0.003482,-0.006045
5.542771,-0.003545,-0.006154
5.552776,-0.003608,-0.006263
5.562781,-0.003671,-0.006372
5.572786,-0.003733,-0.00648
5.582791,-0.003795,-0.006588
5.592796,-0.003857,-0.006696
5.602801,-0.003919,-0.006804
5.612806,-0.003981,-0.006911
5.622811,-0.004043,-0.007018
5.632816,-0.004104,-0.007125
5.642821,-0.004166,-0.007231
5.652826,-0.004227,-0.007337
5.662831,-0.004288,-0.007443
5.672836,-0.004349,-0.007549
5.682841,-0.00441,-0.007654
5.692846,-0.00447,-0.007759
5.702851,-0.00453,-0.007864
5.712856,-0.004591,-0.007969
5.722861,-0.004651,-0.008073
5.732866,-0.00471,-0.008176
5.742871,-0.00477,-0.00828
5.752876,-0.004829,-0.008383
5.762881,-0.004889,-0.008486
5.772886,-0.004948,-0.008588
5.782891,-0.005006,-0.00869
5.792896,-0.005065,-0.008792
5.802901,-0.005124,-0.008894
5.812906,-0.005182,-0.008995
5.822911,-0.00524,-0.009095
5.832916,-0.005298,-0.009196
5.842921,-0.005355,-0.009296
5.852926,-0.005413,-0.009395
5.862931,-0.00547,-0.009495
5.872936,-0.005527,-0.009594
5.882941,-0.005584,-0.009692
5.892946,-0.00564,-0.00979
5.902951,-0.005696,-0.009888
5.912956,-0.005752,-0.009985
5.922961,-0.005808,-0.010082
5.932966,-0.005864,-0.010179
5.942971,-0.005919,-0.010275
5.952976,-0.005974,-0.010371
5.962981,-0.006029,-0.010466
5.972986,-0.006084,-0.010561
5.982991,-0.006139,-0.010656
5.992996,-0.006193,-0.01075
6.003002,-0.006247,-0.010843
6.013007,-0.0063,-0.010937
6.023012,-0.006354,-0.011029
6.033017,-0.006407,-0.011122
6.043022,-0.00646,-0.011214
6.053027,-0.006513,-0.011305
6.063032,-0.006565,-0.011396
6.073037,-0.006617,-0.011487
6.083042,-0.006669,-0.011577
6.093047,-0.006721,-0.011667
6.103052,-0.006772,-0.011756
6.113057,-0.006823,-0.011845
6.123062,-0.006874,-0.011933
6.133067,-0.006925,-0.012021
6.143072,-0.006975,-0.012108
6.153077,-0.007025,-0.012195
6.163082,-0.007075,-0.012281
6.173087,-0.007125,-0.012367
6.183092,-0.007174,-0.012452
6.193097,-0.007223,-0.012537
6.203102,-0.007271,-0.012622
6.213107,-0.00732,-0.012706
6.223112,-0.007368,-0.012789
6.233117,-0.007415,-0.012872
6.243122,-0.007463,-0.012954
6.253127,-0.00751,-0.013036
6.263132,-0.007557,-0.013118
6.273137,-0.007603,-0.013199
6.283142,-0.00765,-0.013279
6.293147,-0.007696,-0.013359
6.303152,-0.007741,-0.013438
6.313157,-0.007787,-0.013517
6.323162,-0.007832,-0.013595
6.333167,-0.007877,-0.013673
6.343172,-0.007921,-0.01375
6.353177,-0.007965,-0.013826
6.363182,-0.008009,-0.013902
6.373187,-0.008052,-0.013978
6.383192,-0.008096,-0.014053
6.393197,-0.008138,-0.014127
6.403202,-0.008181,-0.014201
6.413207,-0.008223,-0.014274
6.423212,-0.008265,-0.014347
6.433217,-0.008307,-0.014419
6.443222,-0.008348,-0.014491
6.453227,-0.008389,-0.014562
6.463232,-0.008429,-0.014632
6.473237,-0.00847,-0.014702
6.483242,-0.00851,-0.014771
6.493247,-0.008549,-0.01484
6.503252,-0.008588,-0.014908
6.513257,-0.008627,-0.014975
6.523262,-0.008666,-0.015042
6.533267,-0.008704,-0.015109
6.543272,-0.008742,-0.015174
6.553277,-0.008779,-0.01524
6.563282,-0.008816,-0.015304
6.573287,-0.008853,-0.015368
6.583292,-0.00889,-0.015431
6.593297,-0.008926,-0.015494
6.603302,-0.008962,-0.015556
6.613307,-0.008997,-0.015618
6.623312,-0.009032,-0.015678
6.633317,-0.009067,-0.015739
6.643322,-0.009101,-0.015798
6.653327,-0.009135,-0.015857
6.663332,-0.009169,-0.015916
6.673337,-0.009202,-0.015973
6.683342,-0.009235,-0.01603
6.693347,-0.009267,-0.016087
6.703352,-0.0093,-0.016143
6.713357,-0.009331,-0.016198
6.723362,-0.009363,-0.016252
6.733367,-0.009394,-0.016306
6.743372,-0.009425,-0.01636
6.753377,-0.009455,-0.016412
6.763382,-0.009485,-0.016464
6.773387,-0.009514,-0.016515
6.783392,-0.009544,-0.016566
6.793397,-0.009572,-0.016616
6.803402,-0.009601,-0.016666
6.813407,-0.009629,-0.016714
6.823412,-0.009657,-0.016762
6.833417,-0.009684,-0.01681
6.843422,-0.009711,-0.016856
6.853427,-0.009737,-0.016902
6.863432,-0.009763,-0.016948
6.873437,-0.009789,-0.016992
6.883442,-0.009815,-0.017036
6.893447,-0.009839,-0.01708
6.903452,-0.009864,-0.017123
6.913457,-0.009888,-0.017165
6.923462,-0.009912,-0.017206
6.933467,-0.009935,-0.017247
6.943472,-0.009959,-0.017286
6.953477,-0.009981,-0.017326
6.963482,-0.010003,-0.017364
6.973487,-0.010025,-0.017402
6.983492,-0.010047,-0.01744
6.993497,-0.010068,-0.017476
7.003502,-0.010088,-0.017512
7.013507,-0.010109,-0.017547
7.023512,-0.010128,-0.017582
7.033517,-0.010148,-0.017615
7.043522,-0.010167,-0.017648
7.053527,-0.010186,-0.017681
7.063532,-0.010204,-0.017712
7.073537,-0.010222,-0.017743
7.083542,-0.010239,-0.017774
7.093547,-0.010256,-0.017803
7.103552,-0.010273,-0.017832
7.113557,-0.010289,-0.01786
7.123562,-0.010305,-0.017888
7.133567,-0.01032,-0.017914
7.143572,-0.010335,-0.017941
7.153577,-0.01035,-0.017966
7.163582,-0.010364,-0.01799
7.173587,-0.010378,-0.018014
7.183592,-0.010391,-0.018038
7.193597,-0.010404,-0.01806
7.203602,-0.010417,-0.018082
7.213607,-0.010429,-0.018103
7.223612,-0.010441,-0.018123
7.233617,-0.010452,-0.018143
7.243622,-0.010463,-0.018162
7.253627,-0.010473,-0.01818
7.263632,-0.010483,-0.018197
7.273637,-0.010493,-0.018214
7.283642,-0.010502,-0.01823
7.293647,-0.010511,-0.018246
7.303652,-0.010519,-0.01826
7.313657,-0.010527,-0.018274
7.323662,-0.010535,-0.018287
