Time (s),Normal Strain,Shear Strain
0.0,0.0,0.0
0.010005,2.6e-05,4.6e-05
0.02001,5.3e-05,9.2e-05
0.030015,7.9e-05,0.000138
0.04002,0.000106,0.000184
0.050025,0.000132,0.000229
0.06003,0.000158,0.000275
0.070035,0.000185,0.000321
0.08004,0.000211,0.000367
0.090045,0.000237,0.000413
0.10005,0.000264,0.000459
0.110055,0.00029,0.000504
0.12006,0.000317,0.00055
0.130065,0.000343,0.000596
0.14007,0.000369,0.000642
0.150075,0.000395,0.000687
0.16008,0.000422,0.000733
0.170085,0.000448,0.000779
0.18009,0.000474,0.000824
0.190095,0.0005,0.00087
0.2001,0.000527,0.000915
0.210105,0.000553,0.000961
0.22011,0.000579,0.001006
0.230115,0.000605,0.001052
0.24012,0.000631,0.001097
0.250125,0.000657,0.001143
0.26013,0.000683,0.001188
0.270135,0.000709,0.001233
0.28014,0.000735,0.001278
0.290145,0.000761,0.001323
0.30015,0.000787,0.001369
0.310155,0.000813,0.001414
0.32016,0.000839,0.001459
0.330165,0.000865,0.001504
0.34017,0.000891,0.001548
0.350175,0.000917,0.001593
0.36018,0.000942,0.001638
0.370185,0.000968,0.001683
0.38019,0.000994,0.001727
0.390195,0.001019,0.001772
0.4002,0.001045,0.001816
0.410205,0.001071,0.001861
0.42021,0.001096,0.001905
0.430215,0.001122,0.001949
0.44022,0.001147,0.001994
0.450225,0.001172,0.002038
0.46023,0.001198,0.002082
0.470235,0.001223,0.002126
0.48024,0.001248,0.002169
0.490245,0.001273,0.002213
0.50025,0.001298,0.002257
0.510255,0.001324,0.002301
0.52026,0.001349,0.002344
0.530265,0.001374,0.002387
0.54027,0.001399,0.002431
0.550275,0.001423,0.002474
0.56028,0.001448,0.002517
0.570285,0.001473,0.00256
0.58029,0.001498,0.002603
0.590295,0.001522,0.002646
0.6003,0.001547,0.002689
0.610305,0.001571,0.002731
0.62031,0.001596,0.002774
0.630315,0.00162,0.002816
0.64032,0.001645,0.002858
0.650325,0.001669,0.002901
0.66033,0.001693,0.002943
0.670335,0.001717,0.002985
0.68034,0.001741,0.003026
0.690345,0.001765,0.003068
0.70035,0.001789,0.00311
0.710355,0.001813,0.003151
0.72036,0.001837,0.003192
0.730365,0.00186,0.003234
0.74037,0.001884,0.003275
0.750375,0.001908,0.003316
0.76038,0.001931,0.003356
0.770385,0.001955,0.003397
0.78039,0.001978,0.003438
0.790395,0.002001,0.003478
0.8004,0.002024,0.003518
0.810405,0.002047,0.003559
0.82041,0.00207,0.003599
0.830415,0.002093,0.003638
0.84042,0.002116,0.003678
0.850425,0.002139,0.003718
0.86043,0.002162,0.003757
0.870435,0.002184,0.003796
0.88044,0.002207,0.003835
0.890445,0.002229,0.003874
0.90045,0.002251,0.003913
0.910455,0.002274,0.003952
0.92046,0.002296,0.00399
0.930465,0.002318,0.004029
0.94047,0.00234,0.004067
0.950475,0.002362,0.004105
0.96048,0.002384,0.004143
0.970485,0.002405,0.004181
0.98049,0.002427,0.004218
0.990495,0.002448,0.004255
1.0005,0.00247,0.004293
1.010505,0.002491,0.00433
1.02051,0.002512,0.004367
1.030515,0.002533,0.004403
1.04052,0.002554,0.00444
1.050525,0.002575,0.004476
1.06053,0.002596,0.004512
1.070535,0.002617,0.004548
1.08054,0.002637,0.004584
1.090545,0.002658,0.00462
1.10055,0.002678,0.004655
1.110555,0.002699,0.00469
1.12056,0.002719,0.004725
1.130565,0.002739,0.00476
1.14057,0.002759,0.004795
1.150575,0.002779,0.00483
1.16058,0.002798,0.004864
1.170585,0.002818,0.004898
1.18059,0.002838,0.004932
1.190595,0.002857,0.004966
1.2006,0.002876,0.004999
1.210605,0.002895,0.005033
1.22061,0.002915,0.005066
1.230615,0.002933,0.005099
1.24062,0.002952,0.005131
1.250625,0.002971,0.005164
1.26063,0.00299,0.005196
1.270635,0.003008,0.005228
1.28064,0.003026,0.00526
1.290645,0.003045,0.005292
1.30065,0.003063,0.005324
1.310655,0.003081,0.005355
1.32066,0.003099,0.005386
1.330665,0.003116,0.005417
1.34067,0.003134,0.005447
1.350675,0.003152,0.005478
1.36068,0.003169,0.005508
1.370685,0.003186,0.005538
1.38069,0.003203,0.005568
1.390695,0.00322,0.005597
1.4007,0.003237,0.005627
1.410705,0.003254,0.005656
1.42071,0.003271,0.005685
1.430715,0.003287,0.005713
1.44072,0.003304,0.005742
1.450725,0.00332,0.00577
1.46073,0.003336,0.005798
1.470735,0.003352,0.005826
1.48074,0.003368,0.005853
1.490745,0.003383,0.005881
1.50075,0.003399,0.005908
1.510755,0.003414,0.005935
1.52076,0.00343,0.005961
1.530765,0.003445,0.005988
1.54077,0.00346,0.006014
1.550775,0.003475,0.00604
1.56078,0.00349,0.006065
1.570785,0.003504,0.006091
1.58079,0.003519,0.006116
1.590795,0.003533,0.006141
1.6008,0.003547,0.006166
1.610805,0.003561,0.00619
1.62081,0.003575,0.006214
1.630815,0.003589,0.006238
1.64082,0.003603,0.006262
1.650825,0.003616,0.006285
1.66083,0.00363,0.006309
1.670835,0.003643,0.006332
1.68084,0.003656,0.006354
1.690845,0.003669,0.006377
1.70085,0.003682,0.006399
1.710855,0.003694,0.006421
1.72086,0.003707,0.006443
1.730865,0.003719,0.006464
1.74087,0.003731,0.006485
1.750875,0.003743,0.006506
1.76088,0.003755,0.006527
1.770885,0.003767,0.006547
1.78089,0.003779,0.006567
1.790895,0.00379,0.006587
1.8009,0.003801,0.006607
1.810905,0.003812,0.006626
1.82091,0.003823,0.006646
1.830915,0.003834,0.006664
1.84092,0.003845,0.006683
1.850925,0.003856,0.006701
1.86093,0.003866,0.006719
1.870935,0.003876,0.006737
1.88094,0.003886,0.006755
1.890945,0.003896,0.006772
1.90095,0.003906,0.006789
1.910955,0.003916,0.006806
1.92096,0.003925,0.006822
1.930965,0.003934,0.006838
1.94097,0.003944,0.006854
1.950975,0.003953,0.00687
1.96098,0.003961,0.006885
1.970985,0.00397,0.0069
1.98099,0.003979,0.006915
1.990995,0.003987,0.00693
2.001001,0.003995,0.006944
2.011006,0.004003,0.006958
2.021011,0.004011,0.006972
2.031016,0.004019,0.006985
2.041021,0.004027,0.006999
2.051026,0.004034,0.007011
2.061031,0.004041,0.007024
2.071036,0.004048,0.007036
2.081041,0.004055,0.007049
2.091046,0.004062,0.00706
2.101051,0.004069,0.007072
2.111056,0.004075,0.007083
2.121061,0.004082,0.007094
2.131066,0.004088,0.007105
2.141071,0.004094,0.007115
2.151076,0.004099,0.007125
2.161081,0.004105,0.007135
2.171086,0.004111,0.007145
2.181091,0.004116,0.007154
2.191096,0.004121,0.007163
2.201101,0.004126,0.007172
2.211106,0.004131,0.00718
2.221111,0.004136,0.007188
2.231116,0.00414,0.007196
2.241121,0.004145,0.007204
2.251126,0.004149,0.007211
2.261131,0.004153,0.007218
2.271136,0.004157,0.007225
2.281141,0.00416,0.007231
2.291146,0.004164,0.007237
2.301151,0.004167,0.007243
2.311156,0.00417,0.007249
2.321161,0.004174,0.007254
2.331166,0.004176,0.007259
2.341171,0.004179,0.007264
2.351176,0.004182,0.007268
2.361181,0.004184,0.007272
2.371186,0.004186,0.007276
2.381191,0.004188,0.00728
2.391196,0.00419,0.007283
2.401201,0.004192,0.007286
2.411206,0.004193,0.007289
2.421211,0.004195,0.007291
2.431216,0.004196,0.007293
2.441221,0.004197,0.007295
2.451226,0.004198,0.007297
2.461231,0.004199,0.007298
2.471236,0.004199,0.007299
2.481241,0.0042,0.007299
2.491246,0.0042,0.0073
2.501251,0.0042,0.0073
2.511256,0.0042,0.0073
2.521261,0.0042,0.007299
2.531266,0.004199,0.007299
2.541271,0.004199,0.007298
2.551276,0.004198,0.007296
2.561281,0.004197,0.007295
2.571286,0.004196,0.007293
2.581291,0.004195,0.00729
2.591296,0.004193,0.007288
2.601301,0.004191,0.007285
2.611306,0.00419,0.007282
2.621311,0.004188,0.007279
2.631316,0.004186,0.007275
2.641321,0.004183,0.007271
2.651326,0.004181,0.007267
2.661331,0.004178,0.007263
2.671336,0.004176,0.007258
2.681341,0.004173,0.007253
2.691346,0.00417,0.007247
2.701351,0.004166,0.007242
2.711356,0.004163,0.007236
2.721361,0.004159,0.00723
2.731366,0.004156,0.007223
2.741371,0.004152,0.007216
2.751376,0.004148,0.007209
2.761381,0.004143,0.007202
2.771386,0.004139,0.007194
2.781391,0.004135,0.007186
2.791396,0.00413,0.007178
2.801401,0.004125,0.007169
2.811406,0.00412,0.007161
2.821411,0.004115,0.007152
2.831416,0.004109,0.007142
2.841421,0.004104,0.007133
2.851426,0.004098,0.007123
2.861431,0.004092,0.007113
2.871436,0.004086,0.007102
2.881441,0.00408,0.007091
2.891446,0.004074,0.00708
2.901451,0.004067,0.007069
2.911456,0.00406,0.007057
2.921461,0.004054,0.007046
2.931466,0.004047,0.007033
2.941471,0.004039,0.007021
2.951476,0.004032,0.007008
2.961481,0.004025,0.006995
2.971486,0.004017,0.006982
2.981491,0.004009,0.006968
2.991496,0.004001,0.006955
3.001501,0.003993,0.006941
3.011506,0.003985,0.006926
3.021511,0.003977,0.006912
3.031516,0.003968,0.006897
3.041521,0.003959,0.006882
3.051526,0.00395,0.006866
3.061531,0.003941,0.00685
3.071536,0.003932,0.006834
3.081541,0.003923,0.006818
3.091546,0.003913,0.006802
3.101551,0.003904,0.006785
3.111556,0.003894,0.006768
3.121561,0.003884,0.00675
3.131566,0.003874,0.006733
3.141571,0.003863,0.006715
3.151576,0.003853,0.006697
3.161581,0.003842,0.006678
3.171586,0.003832,0.00666
3.181591,0.003821,0.006641
3.191596,0.00381,0.006622
3.201601,0.003798,0.006602
3.211606,0.003787,0.006582
3.221611,0.003776,0.006562
3.231616,0.003764,0.006542
3.241621,0.003752,0.006522
3.251626,0.00374,0.006501
3.261631,0.003728,0.00648
3.271636,0.003716,0.006459
3.281641,0.003704,0.006437
3.291646,0.003691,0.006415
3.301651,0.003678,0.006393
3.311656,0.003666,0.006371
3.321661,0.003653,0.006349
3.331666,0.00364,0.006326
3.341671,0.003626,0.006303
3.351676,0.003613,0.00628
3.361681,0.003599,0.006256
3.371686,0.003586,0.006232
3.381691,0.003572,0.006208
3.391696,0.003558,0.006184
3.401701,0.003544,0.006159
3.411706,0.00353,0.006135
3.421711,0.003515,0.00611
3.431716,0.003501,0.006084
3.441721,0.003486,0.006059
3.451726,0.003471,0.006033
3.461731,0.003456,0.006007
3.471736,0.003441,0.005981
3.481741,0.003426,0.005955
3.491746,0.003411,0.005928
3.501751,0.003395,0.005901
3.511756,0.00338,0.005874
3.521761,0.003364,0.005847
3.531766,0.003348,0.005819
3.541771,0.003332,0.005791
3.551776,0.003316,0.005763
3.561781,0.0033,0.005735
3.571786,0.003283,0.005706
3.581791,0.003267,0.005678
3.591796,0.00325,0.005649
3.601801,0.003233,0.005619
3.611806,0.003216,0.00559
3.621811,0.003199,0.00556
3.631816,0.003182,0.005531
3.641821,0.003165,0.005501
3.651826,0.003147,0.00547
3.661831,0.00313,0.00544
3.671836,0.003112,0.005409
3.681841,0.003094,0.005378
3.691846,0.003076,0.005347
3.701851,0.003058,0.005316
3.711856,0.00304,0.005284
3.721861,0.003022,0.005252
3.731866,0.003003,0.00522
3.741871,0.002985,0.005188
3.751876,0.002966,0.005156
3.761881,0.002948,0.005123
3.771886,0.002929,0.00509
3.781891,0.00291,0.005057
3.791896,0.002891,0.005024
3.801901,0.002871,0.004991
3.811906,0.002852,0.004957
3.821911,0.002833,0.004923
3.831916,0.002813,0.004889
3.841921,0.002793,0.004855
3.851926,0.002774,0.004821
3.861931,0.002754,0.004786
3.871936,0.002734,0.004752
3.881941,0.002714,0.004717
3.891946,0.002694,0.004682
3.901951,0.002673,0.004646
3.911956,0.002653,0.004611
3.921961,0.002632,0.004575
3.931966,0.002612,0.004539
3.941971,0.002591,0.004503
3.951976,0.00257,0.004467
3.961981,0.002549,0.004431
3.971986,0.002528,0.004394
3.981991,0.002507,0.004357
3.991996,0.002486,0.00432
4.002001,0.002464,0.004283
4.012006,0.002443,0.004246
4.022011,0.002421,0.004209
4.032016,0.0024,0.004171
4.042021,0.002378,0.004133
4.052026,0.002356,0.004096
4.062031,0.002334,0.004057
4.072036,0.002312,0.004019
4.082041,0.00229,0.003981
4.092046,0.002268,0.003942
4.102051,0.002246,0.003904
4.112056,0.002224,0.003865
4.122061,0.002201,0.003826
4.132066,0.002179,0.003787
4.142071,0.002156,0.003747
4.152076,0.002133,0.003708
4.162081,0.00211,0.003668
4.172086,0.002088,0.003628
4.182091,0.002065,0.003589
4.192096,0.002042,0.003549
4.202101,0.002019,0.003508
4.212106,0.001995,0.003468
4.222111,0.001972,0.003428
4.232116,0.001949,0.003387
4.242121,0.001925,0.003346
4.252126,0.001902,0.003305
4.262131,0.001878,0.003264
4.272136,0.001855,0.003223
4.282141,0.001831,0.003182
4.292146,0.001807,0.003141
4.302151,0.001783,0.003099
4.312156,0.001759,0.003058
4.322161,0.001735,0.003016
4.332166,0.001711,0.002974
4.342171,0.001687,0.002932
4.352176,0.001663,0.00289
4.362181,0.001638,0.002848
4.372186,0.001614,0.002806
4.382191,0.00159,0.002763
4.392196,0.001565,0.002721
4.402201,0.001541,0.002678
4.412206,0.001516,0.002635
4.422211,0.001491,0.002592
4.432216,0.001467,0.002549
4.442221,0.001442,0.002506
4.452226,0.001417,0.002463
4.462231,0.001392,0.00242
4.472236,0.001367,0.002377
4.482241,0.001342,0.002333
4.492246,0.001317,0.00229
4.502251,0.001292,0.002246
4.512256,0.001267,0.002202
4.522261,0.001242,0.002158
4.532266,0.001217,0.002115
4.542271,0.001191,0.002071
4.552276,0.001166,0.002027
4.562281,0.001141,0.001982
4.572286,0.001115,0.001938
4.582291,0.00109,0.001894
4.592296,0.001064,0.00185
4.602301,0.001039,0.001805
4.612306,0.001013,0.001761
4.622311,0.000987,0.001716
4.632316,0.000962,0.001672
4.642321,0.000936,0.001627
4.652326,0.00091,0.001582
4.662331,0.000884,0.001537
4.672336,0.000859,0.001492
4.682341,0.000833,0.001447
4.692346,0.000807,0.001402
4.702351,0.000781,0.001357
4.712356,0.000755,0.001312
4.722361,0.000729,0.001267
4.732366,0.000703,0.001222
4.742371,0.000677,0.001177
4.752376,0.000651,0.001131
4.762381,0.000625,0.001086
4.772386,0.000599,0.00104
4.782391,0.000572,0.000995
4.792396,0.000546,0.00095
4.802401,0.00052,0.000904
4.812406,0.000494,0.000858
4.822411,0.000468,0.000813
4.832416,0.000441,0.000767
4.842421,0.000415,0.000722
4.852426,0.000389,0.000676
4.862431,0.000363,0.00063
4.872436,0.000336,0.000584
4.882441,0.00031,0.000539
4.892446,0.000284,0.000493
4.902451,0.000257,0.000447
4.912456,0.000231,0.000401
4.922461,0.000205,0.000356
4.932466,0.000178,0.00031
4.942471,0.000152,0.000264
4.952476,0.000125,0.000218
4.962481,9.9e-05,0.000172
4.972486,7.3e-05,0.000126
4.982491,4.6e-05,8e-05
4.992496,2e-05,3.4e-05
5.002501,-7e-06,-1.1e-05
5.012506,-3.3e-05,-5.7e-05
5.022511,-5.9e-05,-0.000103
5.032516,-8.6e-05,-0.000149
5.042521,-0.000112,-0.000195
5.052526,-0.000139,-0.000241
5.062531,-0.000165,-0.000287
5.072536,-0.000191,-0.000333
5.082541,-0.000218,-0.000378
5.092546,-0.000244,-0.000424
5.102551,-0.00027,-0.00047
5.112556,-0.000297,-0.000516
5.122561,-0.000323,-0.000562
5.132566,-0.000349,-0.000607
5.142571,-0.000376,-0.000653
5.152576,-0.000402,-0.000699
5.162581,-0.000428,-0.000744
5.172586,-0.000455,-0.00079
5.182591,-0.000481,-0.000836
5.192596,-0.000507,-0.000881
5.202601,-0.000533,-0.000927
5.212606,-0.000559,-0.000972
5.222611,-0.000586,-0.001018
5.232616,-0.000612,-0.001063
5.242621,-0.000638,-0.001109
5.252626,-0.000664,-0.001154
5.262631,-0.00069,-0.001199
5.272636,-0.000716,-0.001244
5.282641,-0.000742,-0.00129
5.292646,-0.000768,-0.001335
5.302651,-0.000794,-0.00138
5.312656,-0.00082,-0.001425
5.322661,-0.000846,-0.00147
5.332666,-0.000872,-0.001515
5.342671,-0.000897,-0.00156
5.352676,-0.000923,-0.001604
5.362681,-0.000949,-0.001649
5.372686,-0.000975,-0.001694
5.382691,-0.001,-0.001738
5.392696,-0.001026,-0.001783
5.402701,-0.001051,-0.001827
5.412706,-0.001077,-0.001872
5.422711,-0.001102,-0.001916
5.432716,-0.001128,-0.00196
5.442721,-0.001153,-0.002005
5.452726,-0.001179,-0.002049
5.462731,-0.001204,-0.002093
5.472736,-0.001229,-0.002137
5.482741,-0.001254,-0.00218
5.492746,-0.00128,-0.002224
5.502751,-0.001305,-0.002268
5.512756,-0.00133,-0.002311
5.522761,-0.001355,-0.002355
5.532766,-0.00138,-0.002398
5.542771,-0.001405,-0.002442
5.552776,-0.00143,-0.002485
5.562781,-0.001454,-0.002528
5.572786,-0.001479,-0.002571
5.582791,-0.001504,-0.002614
5.592796,-0.001528,-0.002657
5.602801,-0.001553,-0.002699
5.612806,-0.001577,-0.002742
5.622811,-0.001602,-0.002784
5.632816,-0.001626,-0.002827
5.642821,-0.001651,-0.002869
5.652826,-0.001675,-0.002911
5.662831,-0.001699,-0.002953
5.672836,-0.001723,-0.002995
5.682841,-0.001747,-0.003037
5.692846,-0.001771,-0.003078
5.702851,-0.001795,-0.00312
5.712856,-0.001819,-0.003161
5.722861,-0.001843,-0.003203
5.732866,-0.001866,-0.003244
5.742871,-0.00189,-0.003285
5.752876,-0.001914,-0.003326
5.762881,-0.001937,-0.003367
5.772886,-0.00196,-0.003407
5.782891,-0.001984,-0.003448
5.792896,-0.002007,-0.003488
5.802901,-0.00203,-0.003528
5.812906,-0.002053,-0.003569
5.822911,-0.002076,-0.003609
5.832916,-0.002099,-0.003648
5.842921,-0.002122,-0.003688
5.852926,-0.002145,-0.003728
5.862931,-0.002167,-0.003767
5.872936,-0.00219,-0.003806
5.882941,-0.002212,-0.003845
5.892946,-0.002235,-0.003884
5.902951,-0.002257,-0.003923
5.912956,-0.002279,-0.003962
5.922961,-0.002301,-0.004
5.932966,-0.002323,-0.004038
5.942971,-0.002345,-0.004077
5.952976,-0.002367,-0.004114
5.962981,-0.002389,-0.004152
5.972986,-0.002411,-0.00419
5.982991,-0.002432,-0.004227
5.992996,-0.002454,-0.004265
6.003002,-0.002475,-0.004302
6.013007,-0.002496,-0.004339
6.023012,-0.002518,-0.004376
6.033017,-0.002539,-0.004412
6.043022,-0.00256,-0.004449
6.053027,-0.002581,-0.004485
6.063032,-0.002601,-0.004521
6.073037,-0.002622,-0.004557
6.083042,-0.002643,-0.004593
6.093047,-0.002663,-0.004629
6.103052,-0.002683,-0.004664
6.113057,-0.002704,-0.004699
6.123062,-0.002724,-0.004734
6.133067,-0.002744,-0.004769
6.143072,-0.002764,-0.004804
6.153077,-0.002784,-0.004838
6.163082,-0.002803,-0.004872
6.173087,-0.002823,-0.004906
6.183092,-0.002842,-0.00494
6.193097,-0.002862,-0.004974
6.203102,-0.002881,-0.005008
6.213107,-0.0029,-0.005041
6.223112,-0.002919,-0.005074
6.233117,-0.002938,-0.005107
6.243122,-0.002957,-0.00514
6.253127,-0.002976,-0.005172
6.263132,-0.002994,-0.005204
6.273137,-0.003013,-0.005236
6.283142,-0.003031,-0.005268
6.293147,-0.003049,-0.0053
6.303152,-0.003067,-0.005331
6.313157,-0.003085,-0.005363
6.323162,-0.003103,-0.005394
6.333167,-0.003121,-0.005424
6.343172,-0.003139,-0.005455
6.353177,-0.003156,-0.005485
6.363182,-0.003173,-0.005516
6.373187,-0.003191,-0.005546
6.383192,-0.003208,-0.005575
6.393197,-0.003225,-0.005605
6.403202,-0.003242,-0.005634
6.413207,-0.003258,-0.005663
6.423212,-0.003275,-0.005692
6.433217,-0.003291,-0.005721
6.443222,-0.003308,-0.005749
6.453227,-0.003324,-0.005777
6.463232,-0.00334,-0.005805
6.473237,-0.003356,-0.005833
6.483242,-0.003372,-0.00586
6.493247,-0.003387,-0.005888
6.503252,-0.003403,-0.005915
6.513257,-0.003418,-0.005941
6.523262,-0.003434,-0.005968
6.533267,-0.003449,-0.005994
6.543272,-0.003464,-0.00602
6.553277,-0.003479,-0.006046
6.563282,-0.003493,-0.006072
6.573287,-0.003508,-0.006097
6.583292,-0.003522,-0.006122
6.593297,-0.003537,-0.006147
6.603302,-0.003551,-0.006172
6.613307,-0.003565,-0.006196
6.623312,-0.003579,-0.00622
6.633317,-0.003593,-0.006244
6.643322,-0.003606,-0.006268
6.653327,-0.00362,-0.006291
6.663332,-0.003633,-0.006314
6.673337,-0.003646,-0.006337
6.683342,-0.003659,-0.00636
6.693347,-0.003672,-0.006382
6.703352,-0.003685,-0.006404
6.713357,-0.003697,-0.006426
6.723362,-0.00371,-0.006448
6.733367,-0.003722,-0.006469
6.743372,-0.003734,-0.00649
6.753377,-0.003746,-0.006511
6.763382,-0.003758,-0.006532
6.773387,-0.00377,-0.006552
6.783392,-0.003781,-0.006572
6.793397,-0.003793,-0.006592
6.803402,-0.003804,-0.006612
6.813407,-0.003815,-0.006631
6.823412,-0.003826,-0.00665
6.833417,-0.003837,-0.006669
6.843422,-0.003848,-0.006688
6.853427,-0.003858,-0.006706
6.863432,-0.003869,-0.006724
6.873437,-0.003879,-0.006742
6.883442,-0.003889,-0.006759
6.893447,-0.003899,-0.006776
6.903452,-0.003908,-0.006793
6.913457,-0.003918,-0.00681
6.923462,-0.003927,-0.006826
6.933467,-0.003937,-0.006842
6.943472,-0.003946,-0.006858
6.953477,-0.003955,-0.006874
6.963482,-0.003964,-0.006889
6.973487,-0.003972,-0.006904
6.983492,-0.003981,-0.006919
6.993497,-0.003989,-0.006933
7.003502,-0.003997,-0.006948
7.013507,-0.004005,-0.006962
7.023512,-0.004013,-0.006975
7.033517,-0.004021,-0.006989
7.043522,-0.004028,-0.007002
7.053527,-0.004036,-0.007015
7.063532,-0.004043,-0.007027
7.073537,-0.00405,-0.007039
7.083542,-0.004057,-0.007052
7.093547,-0.004064,-0.007063
7.103552,-0.00407,-0.007075
7.113557,-0.004077,-0.007086
7.123562,-0.004083,-0.007097
7.133567,-0.004089,-0.007107
7.143572,-0.004095,-0.007118
7.153577,-0.004101,-0.007128
7.163582,-0.004107,-0.007138
7.173587,-0.004112,-0.007147
7.183592,-0.004117,-0.007156
7.193597,-0.004122,-0.007165
7.203602,-0.004127,-0.007174
7.213607,-0.004132,-0.007182
7.223612,-0.004137,-0.00719
7.233617,-0.004141,-0.007198
7.243622,-0.004146,-0.007205
7.253627,-0.00415,-0.007213
7.263632,-0.004154,-0.00722
7.273637,-0.004158,-0.007226
7.283642,-0.004161,-0.007233
7.293647,-0.004165,-0.007239
7.303652,-0.004168,-0.007245
7.313657,-0.004171,-0.00725
7.323662,-0.004174,-0.007255
